#Wave		#Intensity
899.963257	135.515167
899.920715	140.032349
899.878235	135.493423
899.835815	108.377342
899.793274	176.084930
899.750793	135.428207
899.708252	117.352272
899.665771	171.487335
899.623230	126.338814
899.580688	162.409546
899.538208	180.426102
899.495667	117.258148
899.453186	166.840576
899.410645	166.813812
899.368103	135.232742
899.325623	157.746216
899.283020	180.252457
899.240540	202.751480
899.197998	171.184891
899.155396	180.165695
899.112854	193.647049
899.070312	202.621368
899.027771	94.541473
898.985229	144.040085
898.942688	108.012726
898.900085	188.991943
898.857544	130.473495
898.814941	202.426392
898.772400	179.905701
898.729797	157.392227
898.687256	157.366989
898.644714	148.350784
898.602112	175.295517
898.559570	166.279327
898.516907	184.225906
898.474304	134.777817
898.431763	166.199310
898.389221	148.208038
898.346558	161.655548
898.304016	134.691345
898.261353	148.136719
898.218750	166.066040
898.176147	228.865112
898.133606	192.933746
898.090942	174.958359
898.048340	161.474121
898.005676	165.932877
897.963074	130.034637
897.920471	143.463486
897.877808	188.265625
897.835205	161.344650
897.792542	120.989075
897.749939	165.773254
897.707275	192.624496
897.664673	125.409782
897.622009	76.129440
897.579346	165.666916
897.536743	125.349449
897.494080	165.613770
897.451477	161.111877
897.408752	170.035263
897.366089	120.795151
897.323425	156.561188
897.280823	152.063629
897.238098	192.284912
897.195435	210.138168
897.152710	227.985703
897.110046	151.966095
897.067383	143.003967
897.024719	205.535248
896.982056	111.686020
896.939331	174.202255
896.896667	151.844269
896.854004	187.542252
896.811279	214.299637
896.768555	165.162811
896.725830	147.283752
896.683167	245.433548
896.640442	169.545074
896.597778	124.907913
896.555054	156.109863
896.512268	182.842224
896.469604	187.271759
896.426880	227.364944
896.384094	156.009750
896.341431	178.268265
896.298706	147.047729
896.255920	160.389984
896.213257	191.546204
896.170532	200.423187
896.127747	151.406570
896.085022	155.834717
896.042236	169.164856
895.999512	173.588715
895.956787	191.362000
895.913940	120.138268
895.871216	186.851791
895.828430	164.581131
895.785767	142.317627
895.742981	222.335632
895.700195	146.717987
895.657410	168.920898
895.614624	120.003502
895.571838	164.422867
895.529114	182.169113
895.486267	159.927719
895.443481	190.994141
895.400757	133.230362
895.357910	146.529907
895.315125	204.221069
895.272339	173.116180
895.229553	137.583115
895.186768	186.373047
895.143921	141.975739
895.101135	159.697113
895.058350	177.412781
895.015442	133.038254
894.972656	195.091492
894.929871	203.926590
894.887024	137.406769
894.844238	146.248260
894.801392	115.207436
894.758545	168.353104
894.715698	155.037216
894.672913	163.870209
894.630066	181.556793
894.587219	141.680161
894.544373	181.498596
894.501526	137.208649
894.458679	177.015045
894.415894	181.411331
894.372986	154.838501
894.330078	181.353180
894.287292	199.014267
894.244446	172.451385
894.201538	207.792709
894.158691	172.396103
894.115845	190.047287
894.072876	145.826874
894.030029	216.496094
893.987183	141.362549
893.944275	181.091736
893.901428	203.143524
893.858521	207.526413
893.815552	150.101440
893.772766	163.319504
893.729858	185.359985
893.686951	136.791397
893.644043	189.712494
893.601135	163.214813
893.558167	149.957153
893.515320	163.162506
893.472412	167.545441
893.429504	176.335358
893.386536	202.753174
893.343689	211.534622
893.300720	193.875656
893.257812	185.033463
893.214844	251.076599
893.171936	202.590759
893.129028	220.172043
893.086060	215.734024
893.043091	171.679153
893.000183	176.052979
892.957275	162.822906
892.914307	175.996552
892.871338	259.553314
892.828430	197.932663
892.785461	215.492142
892.742493	184.677948
892.699524	189.044739
892.656555	171.431717
892.613525	175.799225
892.570618	224.108093
892.527649	197.710739
892.484619	215.250534
892.441711	193.255219
892.398682	131.743805
892.355652	210.756317
892.312744	166.822021
892.269775	201.910080
892.226746	215.043671
892.183777	197.457443
892.140686	201.813049
892.097717	232.486465
892.054749	201.748367
892.011719	210.486313
891.968750	245.528015
891.925720	245.488678
891.882751	210.385147
891.839722	210.351440
891.796692	197.172882
891.753662	227.807709
891.710632	170.828400
891.667603	214.596176
891.624573	157.637238
891.581482	223.283630
891.538513	210.115631
891.495422	188.198425
891.452454	161.912231
891.409363	157.510986
891.366272	301.847687
891.323242	188.077850
891.280273	174.928116
891.237122	196.762589
891.194092	262.308105
891.151062	257.894958
891.107971	179.186432
891.064880	174.788025
891.021851	205.343033
890.978760	205.310135
890.935730	187.806839
890.892639	231.445755
890.849548	205.211472
890.806458	183.351089
890.763367	196.416122
890.720276	174.564133
890.677185	196.353195
890.634155	235.586090
890.591003	274.806396
890.547913	187.536224
890.504761	191.866791
890.461731	165.676605
890.418579	187.446121
890.375488	200.491638
890.332336	222.248596
890.289246	226.570114
890.246155	261.385162
890.203003	200.363190
890.159912	226.461243
890.116760	239.487946
890.073669	156.730637
890.030457	165.411392
889.987366	213.259476
889.944214	239.334534
889.901062	256.699554
889.857910	221.857285
889.814758	191.375626
889.771606	200.042480
889.728516	178.270172
889.685364	199.978394
889.642212	199.946365
889.598999	191.222412
889.555908	199.882309
889.512695	195.505722
889.469543	191.130539
889.426392	230.188538
889.383240	204.096771
889.340027	204.064072
889.296875	273.488892
889.253723	203.998703
889.210449	182.267517
889.167297	234.306427
889.124146	164.855881
889.080933	177.842331
889.037781	299.247711
888.994507	186.457825
888.951294	203.770096
888.908081	212.407150
888.864868	238.378006
888.821716	221.006012
888.778503	229.636139
888.735291	225.267288
888.692078	212.237106
888.648804	264.171234
888.605652	199.179184
888.562378	212.135147
888.519226	225.086960
888.475952	225.050903
888.432739	216.360443
888.389465	224.978821
888.346252	207.639496
888.303040	229.231903
888.259766	233.519623
888.216492	185.921036
888.173279	255.060089
888.130066	259.341614
888.086731	250.656738
888.043457	203.085861
888.000244	224.654755
887.956970	207.340408
887.913696	246.177307
887.870483	267.728912
887.827209	202.923294
887.783936	220.158096
887.740601	224.438980
887.697327	224.403030
887.654053	280.458862
887.610779	215.703049
887.567505	241.548721
887.524231	194.070572
887.480957	232.847397
887.437622	301.790863
887.394348	237.083435
887.351074	228.425629
887.307739	267.172089
887.264404	202.501251
887.221130	206.776672
887.177734	211.050720
887.134460	223.936325
887.091125	266.958252
887.047852	223.864609
887.004517	198.002365
886.961182	245.311462
886.917908	245.272186
886.874573	275.349243
886.831238	339.829773
886.787842	258.057251
886.744568	240.814865
886.701172	219.278412
886.657837	245.036636
886.614502	296.575806
886.571167	223.470612
886.527832	257.809418
886.484436	249.175858
886.441101	214.772385
886.397766	249.096069
886.354370	249.056183
886.310974	283.363373
886.267639	283.317993
886.224304	296.148651
886.180908	304.683899
886.137451	283.181915
886.094177	270.266754
886.050781	304.537567
886.007385	295.911652
885.963989	394.485687
885.920593	321.540100
885.877197	342.921204
885.833862	330.008789
885.790405	329.955963
885.747009	261.351837
885.703613	338.417847
885.660217	351.212921
885.616821	364.003876
885.573364	363.945587
885.529968	351.044250
885.486511	342.427338
885.443115	320.974243
885.399719	303.806946
885.356323	380.767456
885.312805	316.542480
885.269409	354.984039
885.225952	384.860840
885.182556	350.594849
885.139099	410.386780
885.095642	333.385864
885.052185	410.255371
885.008728	337.551941
884.965332	350.314270
884.921875	405.786926
884.878418	316.036041
884.835022	367.226318
884.791504	333.012421
884.748108	341.496521
884.704590	362.781952
884.661072	307.248444
884.617615	349.865814
884.574219	341.277863
884.530762	354.019104
884.487244	405.137695
884.443726	383.753204
884.400269	400.744751
884.356812	413.468262
884.313232	426.187714
884.269836	421.858276
884.226257	387.706635
884.182739	421.723206
884.139343	391.841644
884.095825	413.071259
884.052307	425.778473
884.008789	361.853760
883.965332	366.052246
883.921753	361.737915
883.878235	408.485626
883.834717	382.893982
883.791199	348.803101
883.747681	370.012329
883.704163	382.710114
883.660645	331.628998
883.617126	344.328827
883.573547	382.526337
883.530029	407.962769
883.486511	390.901733
883.442932	344.108368
883.399414	373.786285
883.355896	348.245087
883.312317	365.174194
883.268738	386.343384
883.225220	343.833038
883.181641	335.289642
883.138062	377.670898
883.094482	386.096069
883.050964	428.455597
883.007385	424.145538
882.963745	445.281525
882.920227	415.529572
882.876648	474.814911
882.833069	411.157776
882.789429	402.615845
882.745911	508.485962
882.702332	478.747620
882.658691	504.087158
882.615112	398.122742
882.571533	402.293671
882.527954	423.399231
882.484314	448.731354
882.440735	457.124786
882.397156	418.963989
882.353516	414.665619
882.309875	469.597107
882.266296	368.003662
882.222656	435.612762
882.179016	393.257294
882.135437	456.612793
882.091797	405.813049
882.048218	380.388855
882.004517	435.264221
881.960876	414.068573
881.917236	502.717072
881.873657	422.383698
881.829956	418.092926
881.786316	405.358551
881.742737	409.515442
881.699036	371.459717
881.655396	396.722992
881.611694	413.538605
881.568054	371.281342
881.524414	367.003479
881.480774	404.904541
881.437073	421.708038
881.393372	434.289734
881.349731	358.337067
881.306091	425.720612
881.262390	421.438080
881.218689	400.302063
881.174988	425.516174
881.131348	387.536865
881.087646	336.934631
881.044006	387.412781
881.000244	332.616425
880.956604	336.772858
880.912903	357.763885
880.869141	336.665039
880.825500	357.649353
880.781799	340.764221
880.738098	349.122253
880.694397	328.038269
880.650574	285.936310
880.606934	332.137543
880.563232	269.030365
880.519470	386.669250
880.475769	357.191589
880.432007	386.545471
880.388306	336.072693
880.344604	399.022461
880.300842	390.559448
880.257080	348.507996
880.213379	340.055786
880.169617	306.420959
880.125854	297.978180
880.082092	398.639374
880.038391	306.273834
879.994629	411.096313
879.950867	297.787415
879.907104	348.061951
879.863342	360.584778
879.819580	373.103577
879.775818	305.979797
879.732056	305.930817
879.688293	284.931030
879.644531	247.180008
879.600708	293.217468
879.556946	272.229767
879.513123	339.185883
879.469299	360.065643
879.425598	221.865402
879.381775	267.870056
879.338013	242.718369
879.294189	276.152557
879.250427	234.273743
879.206604	280.246948
879.162781	280.202087
879.119019	259.249969
879.075134	280.112396
879.031372	280.067535
878.987549	225.689941
878.943726	225.653824
878.899963	279.933075
878.856140	304.952881
878.812317	284.020233
878.768433	246.389862
878.724609	271.403015
878.680786	225.437180
878.636963	233.749283
878.593079	225.365021
878.549255	271.229279
878.505432	279.530029
878.461609	237.771072
878.417725	204.366974
878.373840	258.545380
878.330017	271.012268
878.286194	237.618866
878.242310	266.757416
878.198425	220.873123
878.154602	183.337021
878.110718	187.473755
878.066895	204.105408
878.022949	199.907990
877.979065	224.860489
877.935181	270.622070
877.891296	241.439514
877.847473	220.590439
877.803589	191.425201
877.759705	257.966583
877.715759	191.363922
877.671936	187.173874
877.627991	216.255188
877.584106	228.694839
877.540222	166.296890
877.496277	137.172974
877.452393	245.209396
877.408447	191.149597
877.364563	236.821381
877.320679	191.088409
877.276672	191.057831
877.232788	191.027237
877.188904	157.779846
877.144958	207.571838
877.101013	186.784744
877.057068	219.955704
877.013184	178.426071
876.969238	215.736511
876.925354	165.924606
876.881348	194.930191
876.837402	182.458633
876.793457	157.552689
876.749512	153.382004
876.705566	128.488678
876.661560	140.900513
876.617676	178.169174
876.573730	194.711868
876.529724	111.837852
876.485779	153.234741
876.441833	140.787766
876.397888	115.924309
876.353821	120.045242
876.309875	95.193054
876.265869	198.631958
876.221924	153.087631
876.177917	136.515762
876.133972	148.902435
876.089966	186.098251
876.046021	173.663895
876.002014	148.830948
875.958008	202.543030
875.913940	157.049042
875.869995	136.362854
875.825989	152.867218
875.781982	144.580978
875.737976	206.511185
875.693970	111.498184
875.649902	132.124847
875.605896	152.744904
875.561890	152.720444
875.517883	189.838272
875.473877	169.176590
875.429810	115.516731
875.385864	160.872559
875.341736	173.219635
875.297791	173.191895
875.253723	164.918259
875.209656	127.791191
875.165588	111.284187
875.121521	251.379578
875.077454	197.775223
875.033447	168.905960
874.989380	181.235916
874.945374	140.023514
874.901306	177.060211
874.857239	181.148880
874.813110	193.468964
874.769104	164.628082
874.725037	213.982254
874.680969	193.376068
874.636841	201.572556
874.592773	205.653366
874.548706	205.620438
874.504639	185.028763
874.460571	160.332596
874.416443	127.423454
874.372437	193.159470
874.328308	209.565018
874.284180	184.880707
874.240051	201.282318
874.196045	197.142960
874.151917	172.472473
874.107788	209.397324
874.063660	172.417252
874.019531	197.016739
873.975464	164.154327
873.931335	180.540863
873.887207	196.922134
873.843079	188.686829
873.798950	139.441849
873.754822	221.431015
873.710754	172.196548
873.666565	204.963074
873.622437	172.141418
873.578308	188.505661
873.534180	188.475479
873.489990	204.831848
873.445862	241.662888
873.401672	270.291473
873.357605	225.206833
873.313416	225.170776
873.269287	233.321457
873.225098	192.357056
873.180969	188.234222
873.136780	208.661041
873.092590	188.173950
873.048462	269.945496
873.004272	220.829132
872.960083	179.906036
872.915894	224.846542
872.871765	192.110825
872.827576	171.646027
872.783386	204.307785
872.739197	192.018570
872.695007	245.090836
872.650818	220.546448
872.606567	228.678207
872.562439	216.392944
872.518188	187.782669
872.474060	220.405228
872.429810	228.531799
872.385559	261.137390
872.341370	277.414032
872.297241	252.895828
872.252930	256.933655
872.208740	256.892517
872.164551	207.927307
872.120361	269.039307
872.076050	216.012131
872.031860	289.328430
871.987610	281.133301
871.943359	171.097214
871.899109	224.020004
871.854919	236.201447
871.810608	240.235428
871.766418	276.837158
871.722168	284.933807
871.677917	297.097687
871.633667	276.704224
871.589417	297.002563
871.545166	240.004715
871.500916	239.966293
871.456665	243.994446
871.412354	252.087219
871.368103	276.438477
871.323853	268.264984
871.279602	207.262482
871.235229	300.685638
871.190979	264.073486
871.146790	239.659073
871.102417	203.068390
871.058105	247.703766
871.013916	239.543976
870.969604	239.505615
870.925293	280.054932
870.880981	300.300690
870.836731	267.792847
870.792419	251.522705
870.748047	202.808411
870.703796	291.997345
870.659485	308.170074
870.615173	287.849609
870.570862	226.999954
870.526550	222.910690
870.482178	259.345459
870.437866	166.116577
870.393555	198.497772
870.349243	206.566635
870.304932	166.036789
870.260559	210.549515
870.216248	194.322281
870.171875	226.673019
870.127563	230.683807
870.083252	206.368240
870.038879	149.694168
869.994507	182.031311
869.950195	214.358109
869.905823	169.841492
869.861511	210.246262
869.817078	189.999847
869.772766	189.969421
869.728394	161.650208
869.684021	141.421280
869.639648	189.878159
869.595276	161.572556
869.550903	197.894684
869.506531	209.977051
869.462158	193.793930
869.417786	177.615997
869.373413	145.298904
869.328979	173.523666
869.284607	133.148010
869.240234	104.887688
869.195862	149.239349
869.151428	145.182587
869.107056	165.320358
869.062622	165.293884
869.018250	64.494598
868.973877	157.180405
868.929443	80.592430
868.885010	108.782356
868.840637	145.019913
868.796143	128.885941
868.751770	149.000504
868.707336	148.976639
868.662903	112.721024
868.618469	108.677864
868.574036	165.002914
868.529663	100.595421
868.485229	104.602478
868.440735	136.765945
868.396301	108.590858
868.351868	104.552231
868.307434	144.741440
868.263000	124.618500
868.218506	104.501999
868.174072	112.522591
868.129578	104.468529
868.085144	116.503929
868.040710	84.351402
867.996277	104.418335
867.951721	148.571533
867.907288	108.399696
867.862793	120.424812
867.818359	136.459595
867.773865	88.283241
867.729370	104.318031
867.684937	112.324501
867.640442	84.229881
867.595947	80.206085
867.551514	112.270531
867.506958	136.306671
867.462463	124.259697
867.417969	128.247528
867.373535	80.141869
867.328979	112.180641
867.284485	84.122002
867.239929	128.165375
867.195435	76.086006
867.150940	84.081589
867.106445	60.048656
867.061890	104.067665
867.017395	132.064728
866.972839	108.035645
866.928345	92.015625
866.883789	112.001076
866.839294	83.987350
866.794739	111.965195
866.750183	99.952911
866.705688	111.929321
866.661133	75.939873
866.616638	103.901077
866.572021	99.888878
866.527527	111.857620
866.482910	79.885498
866.438416	115.815422
866.393860	87.845901
866.349304	103.801247
866.304749	51.892311
866.260193	99.776917
866.215637	87.789619
866.171021	79.795959
866.126465	95.739807
866.081909	163.529312
866.037292	103.684898
865.992676	75.757591
865.948181	47.839237
865.903564	95.663147
865.859009	95.647820
865.814392	123.525307
865.769836	79.680977
865.725159	103.568672
865.680603	91.603767
865.635986	95.571220
865.591431	123.426384
865.546753	147.291763
865.502197	119.406616
865.457581	119.387482
865.412964	79.578903
865.368347	87.522766
865.323792	95.464088
865.279114	83.517693
865.234497	87.480705
865.189880	35.781826
865.145264	51.676582
865.100647	107.311089
865.055969	79.476959
865.011353	71.517799
864.966675	83.424065
864.922058	127.102013
864.877441	95.311241
864.832825	103.237297
864.788147	91.310669
864.743469	71.449074
864.698853	55.562595
864.654175	95.234901
864.609497	103.154610
864.564880	99.171234
864.520203	95.189125
864.475586	118.967346
864.430908	83.263794
864.386169	83.250450
864.341492	146.655869
864.296875	99.075920
864.252136	126.796860
864.207520	126.776543
864.162781	55.455849
864.118103	83.170441
864.073425	63.357800
864.028687	134.613754
863.984009	87.089058
863.939331	158.318359
863.894653	114.762421
863.849976	102.873955
863.805237	126.593811
863.760559	114.707253
863.715820	67.231407
863.671143	94.899719
863.626404	94.884506
863.581665	83.010643
863.536987	110.663116
863.492249	114.597000
863.447571	118.529625
863.402832	90.858147
863.358093	118.491631
863.313354	102.676292
863.268616	94.762924
863.223877	150.017242
863.179138	130.257263
863.134338	126.289825
863.089600	90.756264
863.044861	114.413467
863.000183	122.284447
862.955444	74.936523
862.910645	130.132050
862.865906	90.683556
862.821106	110.379677
862.776367	126.127983
862.731628	126.107765
862.686890	98.505898
862.642090	114.248528
862.597290	98.474327
862.552490	82.705177
862.507751	126.006729
862.463013	78.741585
862.418213	51.173824
862.373352	31.486538
862.328613	102.314842
862.283813	121.971222
862.239014	74.744568
862.194275	94.399063
862.149475	78.653275
862.104675	102.232864
862.059814	94.353668
862.015076	82.546227
861.970215	121.834419
861.925415	129.673920
861.880615	78.577652
861.835754	98.206322
861.790955	102.118202
861.746155	98.174835
861.701294	74.600914
861.656494	168.806580
861.611694	129.528473
861.566833	113.809799
861.522034	54.933853
861.477173	109.850098
861.432373	54.916245
861.387512	94.127037
861.342651	121.561264
861.297852	152.907394
861.252991	58.801109
861.208130	97.986137
861.163269	35.269352
861.118408	129.300232
861.073608	86.186333
861.028687	86.172516
860.983826	86.158699
860.938965	78.313530
860.894165	101.791267
860.849243	66.545158
860.804382	74.362076
860.759460	78.263321
860.714600	46.950462
860.669739	97.797775
860.624817	97.782097
860.580017	132.962326
860.535095	113.390862
860.490173	117.282082
860.445251	78.175514
860.400391	97.703728
860.355469	62.520359
860.310608	46.882751
860.265686	93.750465
860.220764	78.112862
860.175903	78.100334
860.130920	42.948296
860.086060	78.075287
860.041138	97.578461
859.996216	101.465324
859.951294	85.841507
859.906372	78.025223
859.861450	74.112076
859.816467	89.700226
859.771606	113.082153
859.726685	101.367737
859.681702	120.842155
859.636780	62.360142
859.591858	77.937675
859.546936	105.198990
859.501953	70.121414
859.457031	105.165253
859.412109	97.359612
859.367065	70.087677
859.322144	112.900932
859.277161	124.560356
859.232239	81.729622
859.187256	136.194199
859.142273	97.265961
859.097290	62.240234
859.052429	62.230251
859.007385	77.775337
858.962402	69.986580
858.917419	101.075508
858.872498	104.946190
858.827454	81.611725
858.782532	120.455124
858.737488	69.930466
858.692505	85.456863
858.647522	58.256695
858.602478	97.078918
858.557495	104.828415
858.512512	108.693512
858.467529	104.794792
858.422485	93.135979
858.377502	89.240997
858.332458	131.900314
858.287537	58.181980
858.242493	100.832588
858.197449	96.938858
858.152405	73.661713
858.107422	116.289314
858.062378	65.886703
858.017334	42.625736
857.972290	96.861130
857.927307	96.845589
857.882263	38.732021
857.837219	58.088715
857.792236	89.055069
857.747131	104.526138
857.702087	131.604385
857.657043	92.882317
857.611938	88.997932
857.566956	61.901676
857.521912	96.705849
857.476807	58.014202
857.431763	112.142792
857.386719	108.258430
857.341614	139.167084
857.296570	81.167770
857.251465	92.748283
857.206421	73.413940
857.161316	84.991982
857.116272	112.016907
857.071167	73.378609
857.026123	54.059772
856.981018	61.772686
856.935974	69.483124
856.890869	111.927063
856.845764	88.755501
856.800659	73.307991
856.755554	81.011627
856.710510	77.141548
856.665344	77.129166
856.620239	92.540154
856.575134	107.946182
856.530029	80.946648
856.484924	69.371704
856.439758	61.653843
856.394653	30.821976
856.349548	69.338318
856.304443	84.733231
856.259338	73.166954
856.214233	69.304939
856.169006	53.895191
856.123962	76.980774
856.078796	119.301048
856.033630	123.129707
855.988525	76.943718
855.943420	103.857346
855.898254	103.840675
855.853027	84.597343
855.807922	34.602451
855.762756	69.193794
855.717590	122.991440
855.672485	84.543045
855.627258	80.687225
855.582153	126.773865
855.536987	69.138283
855.491821	96.009979
855.446655	69.116089
855.401489	53.748329
855.356262	38.385502
855.311096	95.948349
855.265930	88.258316
855.220764	88.244148
855.175537	99.738243
855.130371	84.380348
855.085205	88.201660
855.039978	80.519020
854.994812	111.175087
854.949646	80.493172
854.904358	84.312645
854.859192	114.953331
854.814026	91.947906
854.768799	103.424789
854.723511	61.278923
854.678406	91.903633
854.633179	38.287033
854.587952	107.186478
854.542725	118.651695
854.497498	91.844627
854.452209	72.698654
854.407043	80.338249
854.361755	87.975380
854.316589	38.244026
854.271301	76.475769
854.226074	84.109840
854.180908	80.273773
854.135681	103.192566
854.090332	110.818665
854.045105	72.593674
853.999878	49.661385
853.954651	80.209351
853.909363	68.739838
853.864136	72.547066
853.818848	129.800217
853.773621	68.706726
853.728333	122.125679
853.683044	64.868851
853.637817	106.825661
853.592529	99.179321
853.547241	95.349419
853.501953	125.841026
853.456726	118.195312
853.411438	72.430656
853.366089	106.722771
853.320801	102.894722
853.275513	68.585464
853.230225	80.003525
853.184937	125.699638
853.139648	99.020172
853.094421	72.349274
853.049072	118.024597
853.003784	125.618904
852.958435	121.792709
852.913147	49.470341
852.867859	98.924797
852.822571	91.300529
852.777222	72.267975
852.731873	76.059334
852.686584	79.849480
852.641296	95.043633
852.595886	53.215885
852.550598	98.813629
852.505249	72.198364
852.459900	72.186768
852.414551	117.759491
852.369263	60.769329
852.323914	79.746933
852.278564	98.718437
852.233215	79.721313
852.187927	64.525932
852.142517	72.105637
852.097168	121.421562
852.051819	94.845360
852.006470	45.518459
851.961121	45.511147
851.915771	98.591644
851.870361	72.036163
851.825012	106.141510
851.779602	90.963821
851.734253	60.632805
851.688843	109.879303
851.643555	94.708321
851.598145	113.631721
851.552734	121.187698
851.507324	87.089668
851.461975	64.360283
851.416565	79.491104
851.371216	105.971107
851.325806	94.601860
851.280396	79.452797
851.235046	94.571465
851.189636	98.338516
851.144165	109.667648
851.098755	64.277603
851.053345	124.754120
851.007935	124.734070
850.962524	124.714027
850.917175	83.129326
850.871765	75.559975
850.826294	117.099136
850.780945	124.633888
850.735474	109.509155
850.690002	94.389275
850.644592	124.573814
850.599182	117.005081
850.553711	105.665024
850.508301	120.740623
850.462891	94.313454
850.417419	94.298294
850.372009	82.969170
850.326538	49.019356
850.281067	79.172386
850.235657	94.237694
850.190186	60.302429
850.144714	101.743996
850.099182	113.030716
850.053772	45.205021
850.008301	97.928467
849.962830	48.956364
849.917358	116.723335
849.871887	120.469238
849.826355	112.921761
849.780945	101.613251
849.735474	71.494125
849.690002	86.531609
849.644470	90.279343
849.598999	75.220688
849.553528	127.854622
849.507996	52.637558
849.462524	124.054298
849.417053	116.517120
849.371521	105.224350
849.325989	75.148170
849.280518	112.704132
849.234985	93.905014
849.189514	101.401108
849.143982	90.119835
849.098450	71.333397
849.052979	108.859787
849.007446	105.089104
848.961914	97.567047
848.916443	52.527657
848.870911	67.524704
848.825378	93.769234
848.779846	67.502991
848.734253	71.241699
848.688721	123.715691
848.643250	108.702370
848.597656	41.225304
848.552124	48.712978
848.506592	86.170647
848.461060	44.951370
848.415466	116.105698
848.369934	89.873825
848.324341	104.835938
848.278809	56.153080
848.233276	86.087547
848.187683	63.619690
848.142151	138.444122
848.096558	97.269417
848.050964	67.329536
848.005371	82.278419
847.959839	37.393269
847.914246	74.774506
847.868652	93.453102
847.823120	119.600739
847.777466	119.581505
847.731934	93.408020
847.686340	85.921562
847.640747	93.377983
847.595093	89.628441
847.549500	115.751457
847.503906	89.599617
847.458313	138.110519
847.412720	111.963493
847.367188	100.750938
847.321533	78.349236
847.275879	104.448845
847.230286	78.324036
847.184692	63.394970
847.139038	85.755875
847.093445	26.095415
847.047791	82.000969
847.002197	111.801514
846.956543	67.070122
846.910950	111.765549
846.865356	81.948219
846.819641	111.729591
846.773987	104.264175
846.728333	89.354919
846.682739	89.340546
846.637085	115.379639
846.591431	119.082397
846.545776	66.973076
846.500183	100.443451
846.454468	148.781174
846.408813	81.816475
846.363159	104.113312
846.317505	74.354683
846.271851	122.665489
846.226135	163.527664
846.180481	74.318802
846.134827	85.452866
846.089172	85.439117
846.043457	70.568787
845.997803	81.698074
845.952148	85.397881
845.906433	40.835892
845.860718	133.623230
845.815002	96.490143
845.769348	148.422485
845.723633	166.948425
845.677979	96.443565
845.632324	126.098213
845.586548	107.537048
845.540894	59.321239
845.495178	137.158295
845.449463	114.897911
845.403748	77.821541
845.358032	81.514206
845.312317	88.910278
845.266602	114.823959
845.220886	40.737431
845.175110	122.192619
845.129456	70.342003
845.083679	103.645210
845.037964	103.628532
844.992249	125.814392
844.946533	103.595177
844.900818	33.293091
844.854980	92.465919
844.809265	103.545158
844.763550	70.251472
844.717773	110.905525
844.672058	114.583931
844.626282	136.739456
844.580505	84.986519
844.534729	81.278366
844.489014	110.816292
844.443237	96.025322
844.397522	92.317177
844.351746	73.841850
844.305969	95.978951
844.260193	110.727119
844.214417	125.470528
844.168640	121.760612
844.122803	103.295403
844.077087	92.213188
844.031250	47.943138
843.985474	136.431580
843.939697	147.469849
843.893982	110.584579
843.848145	92.138977
843.802368	106.864006
843.756531	77.371819
843.710754	92.094475
843.664917	154.693802
843.619141	88.382225
843.573303	95.731995
843.527527	106.760796
843.481689	92.020348
843.435913	80.964867
843.390137	128.787003
843.344299	103.013008
843.298462	132.423965
843.252625	106.657684
843.206787	77.222435
843.160950	84.563332
843.115112	91.901863
843.069336	110.264473
843.023438	106.571823
842.977661	176.366333
842.931763	110.211205
842.885986	55.096729
842.840088	106.503181
842.794250	84.454437
842.748413	73.426811
842.702576	84.427231
842.656677	84.413635
842.610840	106.417435
842.565002	117.407219
842.519104	135.730240
842.473206	168.718506
842.427429	91.680069
842.381531	135.664642
842.335632	109.980644
842.289795	109.962929
842.243835	128.269409
842.197998	113.591751
842.152161	117.237106
842.106262	87.913666
842.060303	95.224464
842.014465	87.885345
841.968567	73.225983
841.922668	95.178444
841.876770	139.084549
841.830933	87.828720
841.784973	58.543045
841.739075	98.775467
841.693237	109.732834
841.647278	124.343842
841.601318	117.010643
841.555420	120.647781
841.509521	113.317528
841.463562	58.477043
841.417664	109.626785
841.371765	58.458199
841.325867	87.673164
841.279907	127.836098
841.234009	83.993042
841.188049	113.189766
841.142090	109.520828
841.096130	65.701912
841.050232	138.681671
841.004272	91.223244
840.958374	109.450249
840.912415	131.319122
840.866455	91.179138
840.820496	109.397331
840.774536	145.839600
840.728638	138.525284
840.682678	120.278885
840.636719	123.903725
840.590759	109.309196
840.544800	105.648521
840.498779	87.419167
840.452820	127.465736
840.406799	134.727768
840.360901	152.909576
840.314880	94.643051
840.268921	134.662628
840.222900	116.446198
840.176941	69.128784
840.130981	123.684196
840.084961	130.938629
840.039001	145.463913
839.992981	79.992249
839.947021	119.969032
839.901001	109.045174
839.854980	105.393341
839.808960	98.109009
839.763000	87.193947
839.716980	119.872345
839.670959	105.325378
839.625000	137.990311
839.578918	145.229538
839.532959	105.274437
839.486877	94.368759
839.440857	130.643372
839.394836	130.622299
839.348816	141.484680
839.302795	108.816818
839.256775	90.666054
839.210754	87.025375
839.164673	112.389648
839.118652	134.120850
839.072571	105.104797
839.026611	101.464127
838.980530	79.708954
838.934509	130.411804
838.888428	137.634705
838.842407	152.098022
838.796265	166.556686
838.750244	155.669174
838.704224	155.644073
838.658142	101.333282
838.612061	112.172325
838.566040	148.333008
838.519958	173.630142
838.473877	141.051743
838.427734	126.564476
838.381714	144.621780
838.335632	126.523643
838.289551	104.816963
838.243469	155.393188
838.197388	158.981339
838.151245	122.829391
838.105225	130.033661
838.059143	126.401222
838.013000	111.937309
837.966919	133.581039
837.920837	147.998352
837.874695	115.492271
837.828613	115.473640
837.782471	133.494858
837.736450	129.865921
837.690308	104.597336
837.644165	140.642685
837.598083	129.803070
837.551880	140.597305
837.505798	140.574615
837.459717	82.889603
837.413513	93.686165
837.367432	93.671051
837.321289	122.473145
837.275146	136.859665
837.229004	129.635590
837.182861	111.612633
837.136780	147.592880
837.090637	161.966049
837.044434	125.953262
836.998352	165.511856
836.952148	111.522598
836.906006	111.504601
836.859863	129.468307
836.813721	100.681320
836.767578	104.260254
836.721375	140.189438
836.675171	122.196701
836.629028	104.209770
836.582825	147.307281
836.536743	114.952972
836.490540	172.401627
836.444336	154.418198
836.398132	114.897316
836.351990	122.058685
836.305786	143.575272
836.259644	154.318497
836.213440	125.587807
836.167236	143.505753
836.121094	111.198997
836.074890	136.286438
836.028625	157.779877
835.982422	89.633186
835.936218	118.296700
835.890076	100.356750
835.843872	154.094406
835.797668	103.907356
835.751404	107.473015
835.705261	150.437927
835.658997	89.531921
835.612793	93.098167
835.566528	128.884338
835.520325	125.283981
835.474121	164.632355
835.427856	186.076080
835.381653	139.534531
835.335388	132.357529
835.289185	146.642761
835.242920	103.706184
835.196716	71.509956
835.150513	125.122208
835.104248	117.953316
835.057922	103.639198
835.011719	107.195648
834.965454	121.468781
834.919250	107.161026
834.872986	110.715172
834.826660	132.122574
834.780457	121.390320
834.734192	99.952347
834.687927	82.090454
834.641663	110.625778
834.595398	178.399857
834.549072	128.427139
834.502869	142.673767
834.456543	139.084457
834.410278	106.970757
834.364014	103.388359
834.317688	142.581604
834.271423	171.070282
834.225159	138.972137
834.178833	153.200943
834.132568	138.927246
834.086243	142.466446
834.039978	121.076920
833.993652	153.101944
833.947388	74.758636
833.901062	113.899513
833.854736	103.204758
833.808472	120.979126
833.762146	124.517212
833.715820	103.154732
833.669495	145.815887
833.623169	128.012772
833.576843	92.438728
833.530518	92.423782
833.484192	131.504898
833.437866	138.590866
833.391541	127.909363
833.345215	110.126366
833.298889	106.556679
833.252563	120.744720
833.206177	71.014824
833.159851	142.006699
833.113525	106.487808
833.067200	117.117653
833.020813	127.744057
832.974487	131.271286
832.928101	141.891968
832.881775	102.855042
832.835388	148.938400
832.789062	120.549683
832.742676	95.715157
832.696289	148.866180
832.649963	85.052635
832.603577	116.928467
832.557190	92.110565
832.510803	106.264236
832.464417	88.539215
832.418091	113.311867
832.371643	127.455238
832.325317	113.275230
832.278870	70.785568
832.232483	116.777306
832.186096	127.372826
832.139709	70.751244
832.093323	116.720665
832.046936	88.410454
832.000549	134.362152
831.954102	77.776039
831.907776	144.922806
831.861328	144.899368
831.814880	113.073906
831.768494	127.187569
831.722046	123.634583
831.675659	95.359825
831.629272	95.344398
831.582825	123.574608
831.536438	95.313560
831.489929	162.359802
831.443542	130.572632
831.397156	81.153641
831.350708	84.668365
831.304260	109.345619
831.257812	126.961464
831.211365	109.310242
831.164917	98.715858
831.118530	130.424866
831.072021	133.928192
831.025574	119.811096
830.979065	105.698570
830.932678	137.385910
830.886169	119.752960
830.839722	126.776733
830.793274	126.756226
830.746826	140.817459
830.700378	112.635742
830.653931	147.810501
830.607422	116.118027
830.560974	94.990288
830.514465	123.115631
830.468018	105.510605
830.421509	119.559341
830.375061	66.801758
830.328552	101.944084
830.282043	119.501305
830.235535	122.996147
830.189087	66.758530
830.142578	112.417221
830.096130	101.861626
830.049622	129.940353
830.003113	108.851318
829.956543	84.258354
829.910095	105.305893
829.863525	80.721451
829.817078	115.798988
829.770569	80.695320
829.723999	140.316971
829.677490	112.235413
829.630981	136.764771
829.584473	119.211517
829.537964	112.180916
829.491455	84.122070
829.444885	150.694305
829.398376	154.173859
829.351868	168.162445
829.305298	147.118317
829.258789	185.619247
829.212219	119.057220
829.165710	182.058029
829.119141	192.530212
829.072571	157.499207
829.026001	143.476044
828.979492	171.443604
828.932922	108.446762
828.886353	157.397232
828.839783	104.914497
828.793274	122.380424
828.746704	101.384506
828.700134	132.827148
828.653564	174.744263
828.606995	111.818214
828.560425	164.206406
828.513794	132.741135
828.467285	115.256523
828.420715	146.666367
828.374146	167.591553
828.327515	146.618866
828.280945	143.104752
828.234375	143.081573
828.187744	132.590714
828.141113	136.057907
828.094604	181.381149
828.047974	146.476425
828.001404	129.017853
827.954773	122.024155
827.908142	132.461899
827.861572	104.558250
827.814941	142.873123
827.768311	94.071938
827.721680	142.826843
827.675110	125.388611
827.628479	111.438492
827.581909	128.829880
827.535278	114.883705
827.488586	142.711182
827.441956	135.727661
827.395386	125.266777
827.348694	100.892998
827.302063	118.269173
827.255493	114.772072
827.208862	104.321335
827.162170	121.688507
827.115540	146.002548
827.068848	139.027512
827.022217	114.679108
826.975647	138.982452
826.928955	100.745949
826.882263	138.937408
826.835571	97.240425
826.789001	107.641594
826.742249	152.756866
826.695618	72.894867
826.648987	156.177963
826.602295	142.272415
826.555603	97.145905
826.508972	138.757370
826.462280	79.772552
826.415588	149.115814
826.368896	162.960632
826.322266	117.867310
826.275574	103.983711
826.228882	100.501289
826.182190	138.599991
826.135498	86.610954
826.088806	93.524666
826.042053	176.629074
825.995361	96.957100
825.948669	138.487686
825.901978	110.772186
825.855286	134.981720
825.808594	107.275757
825.761841	107.258369
825.715149	103.781586
825.668396	117.600060
825.621765	114.122726
825.575012	100.273407
825.528320	69.142860
825.481567	159.002792
825.434814	138.240875
825.388123	89.841995
825.341370	72.552925
825.294617	113.993248
825.247864	131.243668
825.201172	127.769157
825.154419	120.843117
825.107727	110.467216
825.060974	131.158539
825.014160	89.725494
824.967468	124.215157
824.920654	106.945702
824.873962	124.174858
824.827148	86.218552
824.780396	68.963654
824.733643	96.533455
824.686890	130.988434
824.640137	158.539230
824.593384	65.472969
824.546631	110.252380
824.499817	148.127594
824.453003	127.437950
824.406311	130.860992
824.359497	110.180847
824.312744	103.277786
824.265930	106.703064
824.219177	113.568703
824.172302	151.400360
824.125549	158.256516
824.078735	120.393028
824.031982	106.616524
823.985168	134.108688
823.938354	123.772552
823.891541	130.627609
823.844788	116.858360
823.797974	140.894577
823.751221	113.384544
823.704346	92.754112
823.657532	106.478180
823.610718	99.592453
823.563904	54.938644
823.517090	120.158775
823.470276	99.543968
823.423462	123.551765
823.376648	99.511658
823.329773	102.926384
823.282959	133.782578
823.236084	109.752502
823.189331	85.730225
823.142456	106.288223
823.095642	130.267639
823.048767	92.543556
823.001953	133.652328
822.955017	123.351349
822.908203	75.369141
822.861328	154.139130
822.814514	89.043701
822.767639	109.574455
822.720764	136.945831
822.673950	89.000336
822.627075	82.140816
822.580200	130.035172
822.533386	133.435486
822.486450	153.939011
822.439636	136.812454
822.392700	109.432190
822.345825	143.606430
822.298950	147.001755
822.252075	146.977875
822.205200	123.031265
822.158325	150.347122
822.111450	105.909180
822.064514	133.218933
822.017639	140.027924
821.970764	143.419952
821.923828	102.426178
821.876953	112.650497
821.830078	116.045296
821.783142	136.501694
821.736267	109.183617
821.689331	115.988754
821.642456	119.380791
821.595520	92.078789
821.548584	85.244286
821.501648	95.458092
821.454712	98.851250
821.407837	81.794640
821.360901	95.411575
821.314026	68.140053
821.267029	109.006371
821.220154	112.394554
821.173157	91.944237
821.126221	81.714928
821.079285	68.084709
821.032349	142.954651
820.985413	112.303261
820.938477	132.700470
820.891541	112.266769
820.844604	68.029404
820.797668	149.640366
820.750671	95.210213
820.703735	129.192871
820.656738	115.574829
820.609802	122.353455
820.562866	122.333572
820.515930	61.156845
820.468933	91.720352
820.421997	112.084435
820.375000	105.274323
820.328003	129.024963
820.281006	132.398834
820.234009	91.645836
820.187073	105.205887
820.140076	139.120651
820.093140	111.956955
820.046082	128.899170
819.999146	152.618942
819.952148	108.511375
819.905090	94.932014
819.858093	138.985001
819.811096	115.237106
819.764099	125.384697
819.717163	132.140762
819.670105	111.793236
819.623108	101.613686
819.576111	121.916595
819.529114	118.510750
819.482117	128.647888
819.435059	125.242043
819.388062	108.299828
819.341064	108.282219
819.294006	87.964989
819.247009	111.629715
819.199951	162.344086
819.152954	121.738266
819.105896	111.575256
819.058838	111.557106
819.011841	162.238495
818.964783	131.797333
818.917725	87.850594
818.870667	111.484543
818.823669	141.866333
818.776611	94.562172
818.729553	118.183487
818.682434	74.274673
818.635376	101.267174
818.588379	97.875671
818.541321	60.740536
818.494263	138.330933
818.447144	158.548676
818.400146	124.794609
818.353027	134.891144
818.306030	107.895355
818.258911	128.104889
818.211853	74.153915
818.164795	138.173447
818.117676	161.737717
818.070618	94.331642
818.023499	131.369125
817.976440	141.451416
817.929321	131.326370
817.882202	134.671783
817.835144	127.917381
817.788025	104.336670
817.740967	77.398476
817.693848	117.761116
817.646729	131.198181
817.599670	141.267349
817.552551	151.333237
817.505432	121.046875
817.458374	141.198364
817.411255	164.704620
817.364075	164.677795
817.316956	117.607849
817.269897	188.141922
817.222717	127.646950
817.175598	141.060501
817.128479	141.037537
817.081360	147.729553
817.034180	114.136070
816.987061	124.186676
816.939941	110.743057
816.892822	110.725021
816.845642	130.835541
816.798523	154.293701
816.751404	120.731934
816.704224	127.418510
816.657104	107.282326
816.609985	144.137146
816.562744	120.653305
816.515625	144.090210
816.468506	123.964401
816.421265	120.594368
816.374146	140.670517
816.326965	150.693863
816.279785	137.276489
816.232605	100.429848
816.185486	107.107719
816.138306	150.595703
816.091125	107.072830
816.043945	123.782791
815.996765	153.867050
815.949585	96.987335
815.902405	153.816925
815.855164	127.045448
815.807983	123.681992
815.760803	133.688477
815.713623	137.008362
815.666443	116.939308
815.619263	140.304306
815.572083	83.500854
815.524841	120.221642
815.477661	150.252563
815.430420	170.258499
815.383240	166.892883
815.335999	140.167175
815.288757	116.786949
815.241577	150.130173
815.194336	120.084572
815.147156	126.735275
815.099915	133.383820
815.052673	160.034485
815.005432	133.340332
814.958252	129.985641
814.911011	179.950775
814.863770	119.947632
814.816528	169.898117
814.769287	143.224075
814.722046	103.237732
814.674866	123.199142
814.627563	99.874916
814.580322	116.501740
814.533081	146.435455
814.485840	113.136215
814.438599	133.079727
814.391296	129.731583
814.344055	166.295425
814.296753	99.760986
814.249573	109.719193
814.202209	132.971283
814.154968	132.949600
814.107727	112.988731
814.060486	93.034370
814.013184	122.918221
813.965881	126.219749
813.918640	176.014633
813.871338	112.896629
813.824097	126.158005
813.776794	106.220993
813.729431	155.986649
813.682190	86.276405
813.634949	185.795807
813.587585	139.324127
813.540283	142.618103
813.492981	132.646362
813.445740	149.202805
813.398376	112.712624
813.351074	142.525055
813.303833	152.443802
813.256531	102.717102
813.209167	145.768234
813.161865	152.369202
813.114502	105.978676
813.067261	158.942078
813.019958	155.605392
812.972595	158.890213
812.925232	165.483627
812.877930	142.292694
812.830566	155.503845
812.783325	155.478470
812.735962	99.225388
812.688599	135.585892
812.641296	148.789505
812.593933	119.012177
812.546631	118.992760
812.499207	115.668526
812.451904	148.692398
812.404541	151.971863
812.357239	148.643860
812.309875	135.408966
812.262512	135.386871
812.215149	141.967926
812.167786	132.041641
812.120361	115.517570
812.073059	141.898422
812.025635	164.971222
811.978333	131.955444
811.930969	161.619019
811.883545	148.401398
811.836182	138.485367
811.788818	148.352951
811.741394	148.328720
811.694031	158.191467
811.646667	135.099823
811.599304	168.023560
811.551880	138.349747
811.504456	167.968689
811.457092	121.839737
811.409668	128.404694
811.362305	138.259399
811.314941	121.780060
811.267517	177.704025
811.220154	115.159729
811.172729	157.907547
811.125305	144.724945
811.077881	141.412643
811.030457	108.508255
810.983032	115.065712
810.935608	124.908081
810.888184	121.601166
810.840820	128.153259
810.793396	128.132324
810.745911	128.111389
810.698486	137.943573
810.651062	118.218040
810.603638	174.014786
810.556213	160.855316
810.508728	154.264587
810.461365	131.267563
810.413879	131.246109
810.366394	141.066513
810.318970	164.004028
810.271545	147.579514
810.224060	177.066467
810.176636	157.366699
810.129211	173.730667
810.081726	173.702271
810.034302	190.058228
809.986816	160.540192
809.939331	163.789749
809.891907	203.066086
809.844421	160.461487
809.796936	137.515930
809.749451	147.314423
809.702026	160.382812
809.654480	199.627609
809.607056	163.602432
809.559570	183.204773
809.512085	134.110138
809.464600	134.088226
809.417114	219.083954
809.369568	134.044388
809.322144	156.904358
809.274597	199.366684
809.227173	133.978653
809.179626	186.232544
809.132141	176.401993
809.084656	195.970154
809.037109	163.281769
808.989563	202.436279
808.942078	235.048843
808.894592	140.353439
808.847107	182.755981
808.799561	199.040924
808.752014	159.859192
808.704529	146.785446
808.656982	114.147789
808.609497	185.867432
808.561951	163.014938
808.514404	159.728500
808.466858	189.035477
808.419373	153.158859
808.371826	172.682800
808.324280	208.488525
808.276733	185.654709
808.229187	175.854645
808.181641	166.057770
808.134094	172.541611
808.086548	175.768356
808.039001	175.739594
807.991455	172.456940
807.943909	211.469193
807.896301	204.928909
807.848755	234.166138
807.801208	195.106522
807.753662	126.798492
807.706055	195.042679
807.658508	185.260223
807.610901	191.729202
807.563416	217.690750
807.515747	152.683441
807.468201	198.131195
807.420654	240.316528
807.373108	175.337418
807.325439	178.555176
807.277832	243.444489
807.230347	191.478317
807.182739	191.446976
807.135132	165.460968
807.087463	204.359512
807.039917	168.650085
806.992310	210.778091
806.944702	119.961731
806.897156	162.083908
806.849548	165.298523
806.801880	178.233932
806.754272	181.444839
806.706665	197.612900
806.659058	207.297623
806.611450	184.594223
806.563843	213.705673
806.516235	191.008636
806.468567	203.924988
806.420959	148.873230
806.373291	190.914825
806.325684	171.471664
806.278076	216.730576
806.230469	168.181259
806.182800	171.387436
806.135132	206.924515
806.087524	258.613281
806.039856	226.249557
805.992249	206.822861
805.944580	200.326828
805.896973	209.985657
805.849243	245.481476
805.801636	232.523300
805.753967	174.363907
805.706299	184.020645
805.658691	196.902100
805.611023	216.234100
805.563354	222.652359
805.515625	203.257980
805.468018	177.418365
805.420349	219.317673
805.372681	216.057007
805.324951	238.591034
805.277283	193.420486
805.229614	199.835083
805.181885	190.134476
805.134216	228.768402
805.086548	260.946533
805.038879	277.008942
804.991211	299.507080
804.943481	199.638672
804.895752	225.361557
804.848083	215.667847
804.800354	231.724472
804.752686	254.211578
804.705017	167.301712
804.657288	263.778687
804.609619	221.923721
804.561890	270.123718
804.514160	225.066193
804.466431	205.741074
804.418701	234.634949
804.371033	202.459976
804.323303	218.492401
804.275513	228.094360
804.227844	211.996613
804.180115	192.692596
804.132385	205.505066
804.084595	205.471359
804.036865	240.747269
803.989197	195.775681
803.941467	208.579208
803.893738	227.795319
803.845947	282.291565
803.798218	234.135269
803.750488	317.473846
803.702759	311.009216
803.654968	307.752441
803.607178	294.881042
803.559448	275.604462
803.511719	285.171783
803.463928	249.884842
803.416199	304.296997
803.368408	246.600266
803.320679	265.772247
803.272888	288.139496
803.225159	217.669693
803.177307	240.037476
803.129578	179.198578
803.081787	284.751007
803.033997	307.096771
802.986206	230.284775
802.938416	246.236374
802.890686	252.590668
802.842896	278.123810
802.795105	329.218994
802.747253	338.752289
802.699524	290.767914
802.651672	297.109650
802.603882	316.226135
802.556091	335.336304
802.508301	261.838684
802.460510	322.455719
802.412720	351.131744
802.364929	363.840424
802.317078	306.341644
802.269226	344.577789
802.221436	366.851288
802.173645	363.601593
802.125793	315.707428
802.078003	376.235992
802.030151	376.174225
801.982361	337.863739
801.934509	398.358795
801.886719	347.311829
801.838867	372.741394
801.791016	410.903809
801.743164	407.651550
801.695312	353.452271
801.647522	420.252625
801.599609	442.466064
801.551819	483.768311
801.503967	429.592102
801.456055	407.250061
801.408203	445.356598
801.360352	483.450592
801.312500	531.072327
801.264709	508.728210
801.216797	515.002686
801.168945	460.883514
801.121094	486.231659
801.073181	432.134918
801.025391	492.425812
800.977478	508.227020
800.929565	435.097900
800.881714	454.078674
800.833862	584.173035
800.785950	450.755127
800.738037	498.288239
800.690247	453.780304
800.642334	472.742371
800.594421	501.214905
800.546570	523.334595
800.498596	570.816650
800.450745	485.114441
800.402832	478.694397
800.354980	465.937164
800.307068	472.198822
800.259155	497.470001
800.211243	449.867096
800.163330	522.646973
800.115417	538.396240
800.067505	471.810913
800.019653	535.053284
799.971680	525.468872
799.923767	433.598816
799.875854	515.802856
799.827942	468.259338
799.779968	483.999329
799.732117	439.639526
799.684143	509.139038
799.636230	436.333130
799.588257	543.746094
799.540344	518.370300
799.492371	534.086487
799.444458	489.762054
799.396545	461.248413
799.348572	502.235870
799.300598	464.254913
799.252686	495.755341
799.204712	479.888031
799.156738	476.652466
799.108826	426.076172
799.060852	492.273682
799.012878	457.486816
798.964966	470.029846
798.916992	397.409515
798.869019	381.576508
798.821045	381.513763
798.773071	422.433319
798.725098	349.868561
798.677124	362.416809
798.629150	346.602509
798.581116	359.147156
798.533203	324.439209
798.485168	415.717773
798.437256	346.374481
798.389221	333.724121
798.341248	387.182190
798.293274	361.940033
798.245300	346.146545
798.197266	314.626892
798.149292	298.846375
798.101257	327.104279
798.053223	311.326874
798.005310	355.294434
797.957275	276.643921
797.909241	314.316345
797.861206	276.552856
797.813232	342.492065
797.765198	285.886658
797.717224	339.238220
797.669189	279.511414
797.621155	285.745514
797.573120	310.814819
797.525146	260.539215
797.477112	247.942291
797.429016	257.315460
797.381042	257.273071
797.333008	288.600311
797.284912	310.507904
797.236877	228.922684
797.188843	266.509918
797.140808	194.363449
797.092773	247.615875
797.044800	253.842834
796.996704	313.334595
796.948608	253.759232
796.900635	234.923553
796.852539	194.171478
796.804504	184.745651
796.756409	256.722870
796.708374	200.336060
796.660339	222.211212
796.612244	206.528503
796.564209	209.623184
796.516113	222.101410
796.468018	212.681808
796.419983	171.993713
796.371887	234.498245
796.323792	181.315430
796.275757	193.788010
796.227600	190.630981
796.179504	196.848740
796.131470	206.188507
796.083374	196.783875
796.035278	206.120560
795.987183	168.616302
795.939087	209.174652
795.891052	196.654190
795.842896	177.895905
795.794800	187.227982
795.746643	187.197128
795.698547	171.569077
795.650452	174.659729
795.602356	224.525497
795.554260	149.658997
795.506165	168.338608
795.458069	190.128937
795.409912	158.934052
795.361816	168.255371
795.313660	155.766327
795.265564	180.659164
795.217407	140.143478
795.169312	177.485809
795.121216	158.776901
795.073059	143.186935
795.024902	124.489845
794.976746	108.910652
794.928589	171.117096
794.880493	199.085236
794.832336	161.730072
794.784180	174.142136
794.736023	155.458405
794.687866	177.193359
794.639709	139.866425
794.591553	127.412827
794.543396	149.141632
794.495239	177.076477
794.447144	133.561981
794.398926	127.328789
794.350830	170.778732
794.302612	149.018677
794.254456	130.369827
794.206238	99.313004
794.158081	136.532852
794.109924	155.125366
794.061707	127.181816
794.013550	142.668259
793.965393	164.351517
793.917236	105.415649
793.869019	136.397751
793.820862	127.076927
793.772583	220.023727
793.724426	120.838165
793.676270	161.090958
793.628052	136.285233
793.579895	167.231552
793.531677	117.662041
793.483459	120.738480
793.435242	139.290634
793.387085	145.457321
793.338806	139.244659
793.290649	139.221680
793.242371	133.012085
793.194214	129.897324
793.145996	120.599037
793.097778	132.946213
793.049561	154.563110
793.001343	139.083832
792.953064	117.429176
792.904846	135.948166
792.856628	154.461044
792.808411	129.725861
792.760193	135.880844
792.711914	138.946091
792.663696	182.143677
792.615417	179.026932
792.567200	138.877274
792.518982	138.854324
792.470703	197.449097
792.422485	181.993332
792.374207	135.701416
792.325928	172.682373
792.277710	172.653839
792.229492	157.212357
792.181152	151.022202
792.132935	117.099915
792.084656	135.566971
792.036377	160.189056
791.988098	184.802979
791.939819	163.215668
791.891602	153.951599
791.843323	141.612076
791.795044	144.666687
791.746765	150.797806
791.698486	147.695877
791.650208	175.359879
791.601929	135.343155
791.553650	175.301926
791.505371	132.223465
791.457031	126.052696
791.408752	175.215027
791.360474	116.790710
791.312195	110.625542
791.263916	129.041809
791.215576	162.811554
791.167297	110.570694
791.118958	113.623322
791.070679	125.886108
791.022339	101.306213
790.974060	131.983246
790.925720	177.994476
790.877441	119.666153
790.829102	141.121353
790.780823	128.828629
790.732422	156.408905
790.684143	131.852371
790.635803	150.225525
790.587524	116.482162
790.539185	156.305481
790.490845	134.829483
790.442505	116.424385
790.394104	98.025375
790.345825	113.323097
790.297424	94.930672
790.249146	159.212204
790.200745	143.879547
790.152405	110.187378
790.104065	140.771698
790.055725	149.927643
790.007385	110.132706
789.958984	140.701843
789.910706	137.620331
789.862305	140.655289
789.813904	155.918106
789.765564	189.516144
789.717224	143.641693
789.668823	165.007828
789.620483	161.925339
789.572083	177.171982
789.523682	164.925934
789.475342	164.898636
789.427002	201.509430
789.378601	146.528061
789.330200	167.868942
789.281799	189.202759
789.233459	167.813385
789.185059	173.886902
789.136658	131.156128
789.088257	179.928619
789.039856	146.358368
788.991455	121.945122
788.943115	158.502411
788.894714	149.333313
788.846252	164.544174
788.797913	106.631340
788.749451	146.213058
788.701050	118.778442
788.652649	130.939163
788.604248	85.248589
788.555847	133.939896
788.507385	133.917709
788.458984	91.292412
788.410522	118.660477
788.362122	118.640831
788.313660	103.413338
788.265259	124.683662
788.216858	136.825256
788.168396	133.762543
788.119995	85.107513
788.071533	100.288673
788.023071	124.580437
787.974670	88.103271
787.926208	72.900978
787.877747	78.962975
787.829346	100.205635
787.780884	112.333160
787.732422	81.959267
787.684021	124.436035
787.635559	109.242805
787.587097	69.782455
787.538635	66.737373
787.490173	94.023445
787.441711	27.292604
787.393250	78.832237
787.344788	63.661640
787.296326	60.620087
787.247803	66.671043
787.199341	109.079987
787.150879	81.796432
787.102417	96.927849
787.053894	115.082741
787.005432	90.839737
786.956909	121.099571
786.908508	90.809624
786.859985	66.582687
786.811523	81.701569
786.763000	84.713501
786.714478	111.924286
786.666016	54.440624
786.617493	78.623421
786.569031	90.704285
786.520508	54.413548
786.471985	102.764107
786.423523	81.593254
786.375000	54.386482
786.326477	84.587166
786.277954	105.716423
786.229431	126.838669
786.180908	45.292011
786.132446	102.644867
786.083923	63.387783
786.035339	75.449135
785.986816	69.401688
785.938354	60.339283
785.889771	81.444519
785.841248	57.303303
785.792725	84.432961
785.744202	72.359100
785.695679	87.419411
785.647095	84.390945
785.598572	33.148083
785.550049	78.337021
785.501465	57.236782
785.452942	72.287094
785.404358	48.183403
785.355835	60.219257
785.307251	75.261581
785.258728	66.219200
785.210205	75.236603
785.161621	60.179291
785.113037	72.203163
785.064453	57.151352
785.015930	87.216530
784.967346	39.090576
784.918762	84.181107
784.870239	72.143257
784.821594	60.109402
784.773071	78.129250
784.724487	69.102859
784.675903	39.051655
784.627319	27.031273
784.578735	51.050591
784.530151	75.061935
784.481567	75.049469
784.432983	99.048851
784.384399	57.018658
784.335754	90.014511
784.287170	50.999748
784.238586	32.994358
784.190002	62.978767
784.141357	80.959251
784.092773	59.959858
784.044128	86.927353
783.995605	59.939938
783.946960	50.940487
783.898376	98.868042
783.849670	80.878601
783.801086	59.900120
783.752502	89.835258
783.703857	53.892197
783.655212	65.857300
783.606628	68.839371
783.558044	59.850380
783.509338	38.896282
783.460693	41.881344
783.412109	71.784660
783.363464	38.876896
783.314819	74.750832
783.266174	56.801193
783.217529	41.846554
783.168884	53.793774
783.120300	119.521851
783.071594	47.800793
783.022949	68.702217
782.974304	95.569809
782.925659	68.679382
782.877014	44.783455
782.828369	65.671478
782.779663	62.675991
782.731018	47.745197
782.682373	62.655155
782.633667	77.560150
782.585022	53.686562
782.536377	65.605995
782.487671	65.595085
782.439026	74.527481
782.390320	56.631466
782.341614	86.423126
782.292969	83.429138
782.244263	65.540565
782.195557	50.636559
782.146912	65.518768
782.098206	71.463127
782.049500	71.451248
782.000854	68.462723
781.952087	92.260490
781.903442	62.488644
781.854736	56.527939
781.806030	47.594559
781.757324	71.379959
781.708618	71.368080
781.659912	59.463509
781.611206	32.699490
781.562500	74.304649
781.513794	47.547066
781.465027	62.395138
781.416382	59.414055
781.367615	44.553123
781.318909	86.121704
781.270203	71.261276
781.221436	68.280693
781.172791	65.301094
781.124023	74.193436
781.075256	91.984550
781.026550	50.434746
780.977844	71.190140
780.929077	65.246765
780.880310	65.235901
780.831604	71.154594
780.782837	80.035591
780.734131	53.348179
780.685364	82.972237
780.636597	77.032822
780.587891	74.057686
780.539062	133.281647
780.490356	32.574532
780.441589	65.138214
780.392822	68.087700
780.344055	71.036209
780.295288	62.146328
780.246521	59.177124
780.197815	23.666906
780.148987	47.325932
780.100281	50.275425
780.051453	50.267052
780.002686	59.127857
779.953918	82.765213
779.905151	76.840607
779.856384	53.188480
779.807556	14.772117
779.758789	76.802208
779.710022	59.068779
779.661194	62.011887
779.612427	44.286823
779.563599	41.327480
779.514832	47.223537
779.466003	79.676437
779.417236	53.108776
779.368408	67.849907
779.319580	58.990082
779.270813	41.286175
779.221985	61.918945
779.173218	35.376358
779.124390	67.793381
779.075562	47.152752
779.026733	55.984558
778.977966	97.220131
778.929138	61.857044
778.880310	67.736893
778.831482	73.614784
778.782593	50.049709
778.733826	64.759415
778.684937	79.464211
778.636108	82.393593
778.587341	70.611298
778.538513	61.774586
778.489624	35.293877
778.440796	70.575981
778.391968	41.162457
778.343079	61.733391
778.294250	105.811020
778.245422	96.977257
778.196594	55.826077
778.147705	52.879040
778.098816	55.807457
778.049988	64.608383
778.001099	41.107567
777.952271	35.229179
777.903381	64.576050
777.854553	41.086994
777.805664	46.948730
777.756836	41.073288
777.707886	67.466286
777.659058	64.522202
777.610168	67.443771
777.561279	58.636971
777.512451	43.970390
777.463562	67.410011
777.414673	64.468384
777.365784	79.107086
777.316895	61.517464
777.268005	43.933712
777.219116	58.568504
777.170227	87.838097
777.121277	52.694057
777.072388	61.466141
777.023560	76.088234
776.974670	38.037766
776.925720	38.031414
776.876831	64.350113
776.827881	67.263885
776.778992	81.872795
776.730103	64.317886
776.681152	37.999676
776.632263	67.218971
776.583313	55.519444
776.534424	35.059055
776.485535	64.264198
776.436584	67.174080
776.387695	52.562241
776.338684	64.232010
776.289795	55.463833
776.240906	55.454571
776.191956	58.363480
776.143005	49.600674
776.094055	58.343983
776.045105	23.333694
775.996216	72.905617
775.947266	78.724907
775.898315	64.135506
775.849365	58.295265
775.800415	37.885590
775.751465	87.413681
775.702515	46.612839
775.653564	46.605049
775.604553	49.509590
775.555664	87.355263
775.506653	49.493046
775.457703	58.217381
775.408752	43.655739
775.359802	58.197922
775.310852	84.372879
775.261841	34.907082
775.212891	75.619370
775.163879	46.527218
775.114929	52.334370
775.065918	55.232597
775.016968	46.503887
774.968018	52.308125
774.918945	61.015942
774.869995	34.860424
774.820984	66.804642
774.772034	63.889404
774.723022	63.878723
774.674011	43.546391
774.625061	84.175613
774.576050	20.314854
774.527039	69.639275
774.478027	55.121872
774.429016	66.715317
774.380005	75.404701
774.330994	60.893612
774.281982	23.193686
774.232971	49.278339
774.183960	49.270096
774.134949	40.568584
774.085876	40.561798
774.036926	52.142159
773.987915	49.237133
773.938904	46.333076
773.889832	49.220657
773.840820	52.107269
773.791809	69.464737
773.742737	54.983711
773.693665	49.187721
773.644653	60.751133
773.595581	37.601551
773.546570	49.163029
773.497559	49.154800
773.448486	43.364624
773.399475	63.590801
773.350403	43.350109
773.301331	54.900944
773.252319	86.671188
773.203247	34.662674
773.154236	51.985306
773.105103	25.988300
773.056030	28.871056
773.007019	51.959198
772.957947	63.495056
772.908875	80.798355
772.859802	25.966551
772.810730	46.155029
772.761658	43.263092
772.712585	60.558186
772.663513	66.314522
772.614441	69.186180
772.565369	57.645493
772.516296	40.345085
772.467163	54.744873
772.418091	69.139832
772.368958	-5.760688
772.319946	69.116676
772.270813	43.190685
772.221741	48.941242
772.172668	60.446701
772.123535	69.070366
772.074402	66.181343
772.025330	34.523613
771.976257	66.159172
771.927124	51.768066
771.877991	69.012520
771.828918	83.376152
771.779785	43.118370
771.730652	40.237068
771.681580	2.873595
771.632446	48.842922
771.583313	28.726315
771.534180	68.931595
771.485046	54.561703
771.435974	60.294930
771.386780	43.060585
771.337708	51.664043
771.288513	48.785637
771.239380	37.300407
771.190247	51.638062
771.141113	45.892803
771.091980	68.827660
771.042908	11.469354
770.993713	83.138870
770.944519	34.396523
770.895447	63.049717
770.846313	34.384987
770.797119	40.109089
770.747925	94.527000
770.698792	57.279480
770.649658	37.225418
770.600525	62.986294
770.551331	57.250664
770.502197	40.068741
770.453003	37.200447
770.403870	40.055298
770.354675	31.466740
770.305481	71.503319
770.256287	37.175488
770.207153	57.183464
770.157959	54.315174
770.108765	45.731419
770.059631	62.870152
770.010437	37.144310
769.961243	51.421951
769.912048	74.263687
769.862854	19.990713
769.813660	39.974716
769.764465	39.968006
769.715271	14.271893
769.666077	45.662392
769.616882	71.335510
769.567688	39.941177
769.518494	45.639400
769.469238	57.039669
769.420044	34.218056
769.370850	82.679756
769.321594	54.160400
769.272461	34.200825
769.223206	45.593441
769.173950	39.887562
769.124817	68.367195
769.075562	11.392619
769.026306	39.867470
768.977112	59.791164
768.927856	65.474564
768.878662	54.078598
768.829407	51.223751
768.780212	71.132149
768.730957	36.982502
768.681763	51.197941
768.632446	62.564751
768.583252	68.240990
768.533997	36.957657
768.484741	34.109032
768.435486	65.364655
768.386230	96.609779
768.337036	68.183678
768.287781	53.969677
768.238525	48.280544
768.189209	39.753765
768.140015	70.976936
768.090759	56.772007
768.041443	19.866863
767.992188	34.051754
767.942932	34.046032
767.893677	51.060463
767.844421	73.741608
767.795105	28.357389
767.745850	34.023148
767.696594	51.026142
767.647278	70.857727
767.598022	79.347313
767.548767	36.833630
767.499451	22.663036
767.450134	42.486050
767.400879	28.319271
767.351562	62.291920
767.302307	42.464622
767.252991	33.965984
767.203735	59.430473
767.154419	53.761387
767.105103	48.094204
767.055786	25.457354
767.006470	-5.656238
766.957214	67.863441
766.907837	39.580349
766.858582	65.013924
766.809265	28.262167
766.759949	53.689083
766.710632	53.680050
766.661316	36.722275
766.612000	42.364727
766.562683	33.886082
766.513367	50.820568
766.464050	39.520458
766.414673	42.336220
766.365356	70.548492
766.316040	56.429298
766.266724	45.135841
766.217346	50.769272
766.168030	53.580769
766.118713	39.473923
766.069336	95.849098
766.020020	39.460632
765.970703	33.817707
765.921326	30.994345
765.871948	50.709480
765.822632	39.434067
765.773254	61.957386
765.723938	33.789249
765.674561	47.860043
765.625244	64.740921
765.575867	56.286972
765.526489	61.905243
765.477112	36.574211
765.427795	84.387810
765.378418	50.624157
765.329041	8.435939
765.279663	78.722168
765.230286	61.842712
765.180908	84.316765
765.131531	56.201710
765.082153	89.907585
765.032715	58.991913
764.983337	50.555981
764.934021	73.013000
764.884644	47.731228
764.835205	33.686954
764.785828	56.135464
764.736450	61.738605
764.687073	44.893238
764.637634	39.274963
764.588257	64.512283
764.538818	61.696999
764.489441	58.882664
764.440063	42.051956
764.390625	39.241879
764.341187	103.693199
764.291809	47.634789
764.242432	84.047226
764.192932	22.408815
764.143555	16.803778
764.094116	33.601891
764.044739	36.395912
763.995300	81.177185
763.945862	69.968536
763.896484	61.561928
763.847046	58.753750
763.797607	41.959888
763.748169	58.733936
763.698730	50.334885
763.649292	78.285507
763.599854	58.704227
763.550415	58.694324
763.500977	44.711945
763.451538	58.674526
763.402100	58.664631
763.352661	80.999397
763.303162	39.096561
763.253723	41.882103
763.204285	33.500031
763.154846	33.494381
763.105408	47.442364
763.055908	25.112309
763.006470	47.426357
762.957031	41.839725
762.907532	39.043819
762.858032	52.979099
762.808594	36.242741
762.759094	47.386353
762.709656	19.508734
762.660156	75.235275
762.610718	44.576344
762.561218	61.282124
762.511780	44.561295
762.462280	50.122993
762.412781	52.898674
762.363342	75.159111
762.313843	41.748013
762.264343	52.871887
762.214783	33.387131
762.165344	52.854034
762.115845	52.845108
762.066345	33.370224
762.016846	27.803823
761.967346	50.038429
761.917847	44.471092
761.868286	50.021530
761.818848	36.120560
761.769287	63.894810
761.719788	72.216713
761.670288	52.764839
761.620789	47.202671
761.571228	61.075489
761.521729	19.429827
761.472229	52.729195
761.422668	33.297024
761.373169	58.259945
761.323608	74.892990
761.274109	55.466911
761.224609	61.003292
761.175049	36.041309
761.125488	41.579098
761.075989	24.943243
761.026489	60.962067
760.976929	41.558022
760.927307	38.780930
760.877808	72.009560
760.828308	55.382603
760.778687	74.753876
760.729187	38.754719
760.679626	63.657700
760.630066	52.577908
760.580566	58.102596
760.530945	47.027485
760.481384	69.146370
760.431824	77.430840
760.382263	49.768555
760.332703	44.231232
760.283142	0.000000
760.233521	63.560894
760.184021	35.919647
760.134460	55.251652
760.084839	44.193844
760.035278	57.994610
759.985657	55.223621
759.936096	35.889282
759.886536	52.444691
759.836975	46.916260
759.787354	19.315191
759.737732	55.176926
759.688232	22.067036
759.638611	30.337042
759.588989	24.817017
759.539368	57.896572
759.489807	68.912827
759.440186	38.584652
759.390564	44.089283
759.341003	52.347164
759.291443	44.074364
759.241760	41.312721
759.192200	33.044582
759.142578	49.558487
759.092957	41.291748
759.043335	66.055611
758.993713	68.796280
758.944092	52.276321
758.894470	33.011036
758.844849	77.012711
758.795227	21.999905
758.745667	19.246658
758.695984	49.483025
758.646362	63.217606
758.596741	54.962521
758.547058	60.448536
758.497437	63.185493
758.447815	74.161713
758.398193	38.447708
758.348511	79.628197
758.298889	46.670689
758.249268	68.621742
758.199646	43.910477
758.149963	41.159096
758.100281	32.921700
758.050659	71.318268
758.000977	43.880730
757.951355	35.647053
757.901672	43.865860
757.851990	84.975700
757.802368	43.850994
757.752686	60.284901
757.703003	32.877102
757.653320	68.482353
757.603699	35.604790
757.554016	60.244045
757.504333	71.185440
757.454651	65.698502
757.404968	60.213417
757.355286	27.365095
757.305603	21.888365
757.255920	13.677910
757.206238	57.437481
757.156616	62.897053
757.106873	38.278671
757.057190	51.940815
757.007446	40.998955
756.957764	43.724804
756.908081	73.773094
756.858398	62.833088
756.808716	27.314102
756.758972	32.771362
756.709290	65.531609
756.659607	38.220287
756.609924	43.672920
756.560120	46.394608
756.510437	38.200844
756.460693	27.281689
756.411072	62.737236
756.361328	73.635567
756.311584	65.442734
756.261902	19.084225
756.212097	68.146385
756.162415	57.233250
756.112671	29.974234
756.062927	65.387230
756.013184	29.964062
755.963501	21.788347
755.913757	57.184704
755.864014	57.174999
755.814270	70.776077
755.764587	21.773558
755.714844	51.703423
755.665100	48.973877
755.615356	40.804634
755.565552	46.237404
755.515808	43.510166
755.466064	51.659554
755.416321	51.650784
755.366577	62.514015
755.316833	40.763088
755.267029	59.775707
755.217285	70.632027
755.167542	57.039253
755.117737	54.313873
755.067993	19.006628
755.018188	73.298828
754.968445	35.286034
754.918701	62.418530
754.868896	51.554375
754.819092	70.536110
754.769348	62.386726
754.719543	21.696045
754.669739	35.250084
754.619995	70.488190
754.570190	67.765587
754.520386	37.942284
754.470642	29.806728
754.420837	59.603325
754.371033	59.593197
754.321228	35.208179
754.271484	89.359413
754.221619	21.659206
754.171875	48.724934
754.122070	54.129612
754.072205	46.002350
754.022400	81.166817
753.972595	78.447922
753.922852	27.046410
753.872986	32.450172
753.823181	27.037214
753.773376	75.691330
753.723572	51.353241
753.673706	56.749191
753.623901	45.932011
753.574097	59.431320
753.524292	29.710606
753.474426	13.502524
753.424561	83.701416
753.374756	51.292141
753.324951	45.885162
753.275085	62.069366
753.225281	40.473137
753.175415	59.350502
753.125610	35.064785
753.075745	51.239815
753.025879	51.231098
752.976074	37.742809
752.926208	40.431843
752.876343	26.949976
752.826477	40.418083
752.776672	61.963852
752.726807	35.017086
752.676941	53.863274
752.627075	45.775990
752.577209	37.691460
752.527344	56.527565
752.477539	32.295967
752.427673	80.726181
752.377808	59.189121
752.327881	64.558960
752.278015	40.342480
752.228149	51.091774
752.178284	56.460243
752.128357	51.074379
752.078491	69.879356
752.028625	53.744202
751.978760	8.060257
751.928833	21.490360
751.878967	53.716751
751.829102	26.853802
751.779175	45.643688
751.729309	67.111633
751.679382	48.312149
751.629456	37.569717
751.579590	77.809723
751.529663	45.604828
751.479797	50.961418
751.429871	45.589291
751.379944	67.031654
751.330078	50.935379
751.280212	18.762468
751.230225	83.076775
751.180298	26.794394
751.130371	48.221691
751.080505	66.963158
751.030579	50.883327
750.980652	48.197041
750.930725	77.637558
750.880859	45.503914
750.830872	45.496159
750.780945	29.433672
750.731018	72.233971
750.681091	66.871910
750.631165	53.488407
750.581177	56.153252
750.531311	32.082100
750.481384	82.864632
750.431396	40.088955
750.381409	72.147812
750.331482	56.105396
750.281616	80.136902
750.231628	53.415489
750.181641	56.076698
750.131714	58.737000
750.081787	32.032898
750.031799	48.041153
749.981812	24.016479
749.931885	34.684551
749.881958	58.686924
749.831970	56.009781
749.781982	66.666931
749.732056	55.990669
749.682068	37.320747
749.632080	71.963440
749.582092	61.291733
749.532104	117.233742
749.482178	63.934765
749.432190	58.596867
749.382202	39.945591
749.332214	15.975510
749.282227	79.863914
749.232239	77.188606
749.182251	31.934662
749.132263	50.554585
749.082275	87.790344
749.032288	31.918312
748.982239	47.869293
748.932312	26.589512
748.882263	63.803936
748.832275	63.793041
748.782288	15.945538
748.732239	42.514172
748.682251	53.133640
748.632263	37.187199
748.582214	39.836620
748.532227	77.004318
748.482178	29.203545
748.432190	34.507385
748.382141	66.349022
748.332153	47.763138
748.282104	34.489708
748.232117	66.315025
748.182068	23.869331
748.132080	39.775425
748.082031	68.932289
748.031982	29.158678
747.981934	58.307392
747.931885	52.997662
747.881836	71.534622
747.831848	63.575462
747.781799	47.673447
747.731812	37.073013
747.681702	50.304775
747.631653	79.415016
747.581604	52.934296
747.531555	44.986462
747.481567	37.041340
747.431458	23.808220
747.381409	50.253204
747.331360	21.155626
747.281311	68.744034
747.231201	63.445179
747.181152	50.218845
747.131104	23.783808
747.081055	23.779741
747.030945	42.267864
746.980957	50.184505
746.930847	79.225143
746.880798	50.167343
746.830688	36.959087
746.780640	44.871216
746.730530	50.141605
746.680420	44.855865
746.630310	50.124451
746.580261	60.666588
746.530212	55.381756
746.480103	47.461956
746.429993	52.726482
746.379883	52.717461
746.329834	44.802177
746.279724	63.239307
746.229614	31.614243
746.179504	15.804417
746.129456	63.206848
746.079346	26.331678
746.029236	39.490757
745.979126	47.380798
745.929016	23.686344
745.878906	47.364578
745.828796	44.725555
745.778687	44.717899
745.728577	31.560173
745.678406	36.813896
745.628296	84.131645
745.578186	57.830605
745.528076	39.423206
745.477966	39.416454
745.427795	60.428215
745.377686	49.910412
745.327576	57.781105
745.277405	44.641388
745.227295	52.510284
745.177124	63.001549
745.127014	44.618454
745.076904	60.355804
745.026733	41.979454
744.976562	60.335125
744.926453	39.342255
744.876282	65.559189
744.826111	23.597265
744.775940	44.564976
744.725830	62.904476
744.675659	49.790844
744.625488	57.642677
744.575378	34.055744
744.525208	70.719040
744.475037	28.806522
744.424866	49.748192
744.374695	41.886036
744.324524	36.643997
744.274353	57.573555
744.224182	75.879402
744.174011	31.392992
744.123840	49.697048
744.073669	62.764458
744.023499	60.138958
743.973267	52.285778
743.923157	49.662971
743.872925	31.360710
743.822754	26.129444
743.772583	54.862419
743.722351	52.240963
743.672180	44.397202
743.622009	67.889961
743.571777	33.939156
743.521606	65.256416
743.471375	52.196175
743.421204	44.359138
743.370972	39.133701
743.320801	67.820114
743.270569	31.296221
743.220398	57.366558
743.170166	62.570961
743.119995	44.313492
743.069702	62.549492
743.019531	57.327194
742.969299	39.080017
742.919067	7.814662
742.868835	54.693241
742.818604	20.831945
742.768433	41.656738
742.718201	59.871284
742.667969	54.655701
742.617737	46.839703
742.567505	44.229900
742.517273	52.026245
742.467041	36.412117
742.416809	44.207123
742.366577	41.599560
742.316345	62.388626
742.266052	64.976990
742.215820	41.578133
742.165588	36.374619
742.115356	49.357075
742.065063	36.362125
742.014832	72.711761
741.964600	36.349636
741.914307	62.302956
741.864075	18.168573
741.813782	33.735840
741.763489	28.540806
741.713257	62.260151
741.662964	62.249454
741.612732	25.932816
741.562439	44.078213
741.512207	41.478249
741.461914	46.655010
741.411682	36.280994
741.361389	51.821083
741.311096	56.993393
741.260803	49.213108
741.210510	46.614929
741.160278	67.321106
741.109985	15.532969
741.059692	56.944427
741.009399	46.582886
740.959106	77.624794
740.908813	36.218678
740.858521	75.011497
740.808228	25.861588
740.757935	85.328560
740.707642	43.949581
740.657349	38.772373
740.606995	62.025127
740.556702	49.094780
740.506409	56.836811
740.456116	56.827034
740.405762	46.486847
740.355469	46.478851
740.305176	46.470856
740.254822	64.531754
740.204529	54.197346
740.154175	41.286114
740.103882	25.799379
740.053589	38.692413
740.003235	67.055305
739.952942	30.943277
739.902588	56.719578
739.852295	23.199471
739.801941	30.927305
739.751587	36.075645
739.701233	28.340271
739.650879	5.151890
739.600586	46.359024
739.550232	51.501160
739.499878	77.238441
739.449524	36.038403
739.399170	36.032196
739.348816	61.758846
739.298523	61.748211
739.248108	33.441189
739.197815	43.723255
739.147461	69.430855
739.097046	71.989975
739.046692	66.836319
738.996399	51.403698
738.945984	20.557938
738.895630	74.509689
738.845276	33.395142
738.794861	64.210365
738.744507	25.679720
738.694153	38.512943
738.643738	53.908833
738.593384	28.233095
738.543030	56.456463
738.492615	59.012493
738.442261	25.653185
738.391846	30.778517
738.341492	46.159821
738.291077	41.023880
738.240662	15.381304
738.190369	48.699066
738.139954	41.002670
738.089539	38.433380
738.039124	56.359238
737.988770	17.929394
737.938354	40.974407
737.887939	61.451012
737.837524	43.520298
737.787109	53.751099
737.736755	38.387020
737.686340	28.145628
737.635925	15.349513
737.585510	56.271843
737.535095	71.606361
737.484680	58.809364
737.434265	25.564878
737.383850	46.008842
737.333374	63.890152
737.282959	45.992973
737.232544	48.539764
737.182129	0.000000
737.131714	48.523018
737.081299	71.495270
737.030823	66.377007
736.980408	48.497906
736.929993	40.833294
736.879517	79.100853
736.829102	53.575203
736.778625	61.218239
736.728210	63.757992
736.677795	53.547470
736.627319	35.692150
736.576904	61.175983
736.526428	61.165424
736.475952	45.866150
736.425537	40.762871
736.375061	50.944794
736.324585	53.482800
736.274170	50.927204
736.223694	45.826569
736.173218	38.182213
736.122803	53.445869
736.072266	40.713631
736.021851	48.339085
735.971375	43.243290
735.920898	35.605972
735.870361	20.342754
735.819946	71.187347
735.769470	61.007183
735.718994	27.956797
735.668518	81.314812
735.618042	43.191029
735.567566	35.562939
735.517029	68.573814
735.466553	50.786644
735.416077	50.777866
735.365540	17.769182
735.315063	50.760319
735.264587	45.676392
735.214111	20.297112
735.163635	68.490906
735.113098	91.305428
735.062622	27.894058
735.012146	53.243088
734.961609	53.233883
734.911133	58.293697
734.860596	48.147339
734.810059	27.869955
734.759521	40.531109
734.709045	50.655125
734.658508	22.790865
734.608032	35.446327
734.557495	48.097408
734.506958	55.682106
734.456421	53.141911
734.405884	37.951942
734.355408	43.004761
734.304871	60.702103
734.254333	83.450951
734.203796	53.095966
734.153259	32.863243
734.102722	45.495083
734.052185	40.433075
734.001648	68.219009
733.951111	60.628628
733.900574	32.834824
733.850037	60.607647
733.799500	30.298580
733.748962	53.013340
733.698364	63.100197
733.647827	-7.570713
733.597229	25.231342
733.546692	30.272369
733.496155	55.489735
733.445618	85.742020
733.395020	37.820812
733.344482	47.898071
733.293884	57.971836
733.243347	55.441719
733.192810	57.951763
733.142212	62.980137
733.091614	65.487999
733.041077	60.439995
732.990479	30.214764
732.939880	50.349216
732.889343	45.306446
732.838745	67.947899
732.788147	45.290752
732.737610	42.767193
732.687012	47.790344
732.636414	62.871140
732.585815	37.716148
732.535217	52.793461
732.484680	45.243698
732.434021	65.340683
732.383423	72.867363
732.332825	45.220181
732.282227	67.818520
732.231628	62.784039
732.181030	60.262234
732.130432	55.230804
732.079834	82.831848
732.029175	70.269386
731.978577	72.766388
731.927979	57.701271
731.877380	62.707901
731.826782	37.618217
731.776184	50.148926
731.725525	45.126209
731.674866	37.598652
731.624268	37.592133
731.573608	25.057076
731.523071	42.589642
731.472412	62.620964
731.421753	65.114510
731.371155	45.071457
731.320496	67.595459
731.269897	27.534113
731.219238	-2.502667
731.168579	42.537956
731.117981	35.025181
731.067322	107.558678
731.016663	32.512100
730.966003	65.012917
730.915344	57.501446
730.864685	62.490726
730.814087	27.491148
730.763428	29.985138
730.712769	14.989967
730.662109	42.464203
730.611450	22.477146
730.560791	32.461353
730.510132	57.421658
730.459473	42.434727
730.408813	69.880356
730.358154	47.410580
730.307434	52.392071
730.256775	59.866257
730.206116	49.879883
730.155457	24.935612
730.104797	52.355690
730.054077	57.331989
730.003418	72.275604
729.952698	47.344761
729.902039	42.353745
729.851379	9.963856
729.800659	44.829563
729.750000	39.841576
729.699280	52.282986
729.648621	37.338501
729.597900	49.776020
729.547241	74.651062
729.496521	29.855234
729.445862	44.775070
729.395142	59.689720
729.344421	22.379755
729.293701	59.668976
729.242981	64.630157
729.192322	62.133583
729.141541	42.243492
729.090820	62.111984
729.040161	47.196903
728.989441	29.803389
728.938721	29.798206
728.888062	54.620548
728.837280	57.093372
728.786560	27.300779
728.735840	34.740402
728.685120	74.430779
728.634338	32.247726
728.583679	52.083424
728.532898	66.952759
728.482178	42.148109
728.431458	54.535126
728.380737	44.611885
728.330017	42.126118
728.279236	49.551517
728.228516	32.202885
728.177795	37.150711
728.127014	32.191681
728.076233	44.565342
728.025513	32.180481
727.974731	47.024826
727.924011	64.338562
727.873291	49.482590
727.822510	27.210688
727.771790	44.518829
727.721008	71.712303
727.670288	42.030930
727.619507	49.439545
727.568726	39.544750
727.517944	44.480099
727.467163	49.413727
727.416382	56.815895
727.365601	61.745655
727.314880	64.204300
727.264099	24.689663
727.213318	37.028046
727.162537	39.489704
727.111755	46.885857
727.060974	56.746677
727.010193	49.336342
726.959351	64.126076
726.908630	61.648949
726.857849	78.896912
726.807007	34.511383
726.756226	29.576033
726.705444	27.106640
726.654663	49.276215
726.603882	66.511299
726.553040	68.962662
726.502258	19.700184
726.451416	49.241879
726.400635	54.156628
726.349854	41.841011
726.299011	44.294525
726.248230	14.762268
726.197388	36.899239
726.146606	39.352325
726.095764	66.395477
726.044922	29.503956
725.994141	54.081158
725.943359	56.529533
725.892517	2.457377
725.841675	56.509823
725.790833	34.391285
725.739990	34.385288
725.689209	39.290619
725.638367	34.373299
725.587524	76.099030
725.536682	31.906929
725.485840	66.256683
725.434998	63.791599
725.384216	53.968090
725.333313	56.411346
725.282532	44.140308
725.231689	61.295288
725.180847	41.673523
725.130005	31.862429
725.079102	46.560040
725.028259	29.401209
724.977417	56.342484
724.926575	53.883404
724.875671	46.527546
724.824829	51.416206
724.773926	58.751125
724.723145	31.817970
724.672241	34.259525
724.621399	56.273682
724.570496	61.156368
724.519653	41.579071
724.468811	56.244213
724.417908	31.784657
724.367004	19.556374
724.316162	63.547115
724.265259	41.542782
724.214417	68.411453
724.163513	29.314075
724.112671	29.308956
724.061768	51.281715
724.010864	56.155876
723.960022	58.587200
723.909058	51.254845
723.858215	73.208420
723.807312	19.518833
723.756409	26.833708
723.705505	65.853050
723.654602	46.332935
723.603699	21.943346
723.552795	46.316746
723.501892	43.871353
723.451050	48.737431
723.400085	31.673794
723.349182	19.488157
723.298279	56.018661
723.247375	70.619881
723.196411	29.216911
723.145508	75.463829
723.094604	51.111717
723.043701	63.270111
722.992798	41.361687
722.941833	46.219685
722.890930	34.050655
722.839966	36.476463
722.789062	58.352139
722.738159	34.032795
722.687195	46.179287
722.636230	51.031338
722.585388	58.311325
722.534424	46.155060
722.483459	38.860619
722.432556	29.140366
722.381592	65.554352
722.330688	36.412712
722.279724	55.823059
722.228760	58.239956
722.177795	36.393604
722.126831	50.942127
722.075867	21.828520
722.024963	48.499332
721.973999	46.066303
721.923035	41.210003
721.872070	33.931709
721.821106	24.232693
721.770142	46.034058
721.719177	55.715683
721.668213	36.329952
721.617249	55.696178
721.566284	43.580681
721.515320	9.682900
721.464294	50.826324
721.413330	41.137913
721.362366	70.164154
721.311401	14.514179
721.260437	67.720970
721.209473	65.290932
721.158447	50.772938
721.107483	70.102730
721.056458	50.755154
721.005493	62.828705
720.954468	60.401634
720.903564	67.637978
720.852539	65.210907
720.801514	53.125504
720.750549	16.900608
720.699524	38.623192
720.648560	31.375843
720.597534	69.980003
720.546509	12.063402
720.495544	21.710320
720.444519	43.413029
720.393555	24.114120
720.342529	57.863747
720.291504	19.284534
720.240479	28.921730
720.189453	55.423595
720.138428	40.958084
720.087402	43.359779
720.036438	57.802902
719.985352	40.936543
719.934326	62.597851
719.883362	31.293436
719.832275	14.440592
719.781250	38.501492
719.730225	50.524342
719.679199	28.865988
719.628174	48.101540
719.577148	43.283791
719.526123	40.871967
719.475037	16.826681
719.424011	52.874573
719.372986	38.447487
719.321899	60.063660
719.270874	55.248871
719.219788	57.640877
719.168823	43.223072
719.117737	52.818928
719.066711	36.006584
719.015625	64.800476
718.964539	52.791119
718.913513	55.181026
718.862427	31.183800
718.811401	23.983328
718.760315	23.979116
718.709290	28.769888
718.658142	33.558975
718.607117	2.396649
718.556030	31.150963
718.505005	55.103565
718.453918	62.280045
718.402771	50.294277
718.351746	31.129086
718.300659	57.458984
718.249573	40.692966
718.198486	35.899250
718.147400	40.678669
718.096313	59.811066
718.045227	28.704268
717.994141	50.223640
717.943054	78.908997
717.891968	54.987514
717.840881	57.368195
717.789795	28.679056
717.738708	47.790028
717.687561	57.337952
717.636475	69.271179
717.585388	35.823624
717.534302	40.592972
717.483154	35.811031
717.432007	38.191715
717.380920	7.159688
717.329834	26.247574
717.278687	59.643089
717.227600	59.632599
717.176453	28.618614
717.125366	52.458233
717.074219	28.608551
717.023132	38.138023
716.971985	40.514526
716.920837	45.272976
716.869751	28.588428
716.818604	42.875099
716.767517	69.064400
716.716370	33.335567
716.665222	16.664852
716.614136	33.323837
716.562988	11.899277
716.511841	38.070984
716.460693	45.201340
716.409485	42.814785
716.358398	33.294529
716.307251	57.066288
716.256042	71.320305
716.204895	59.423126
716.153809	42.777122
716.102661	30.889149
716.051453	54.640411
716.000366	57.006042
715.949158	54.621174
715.898010	35.616234
715.846863	33.235966
715.795715	33.230110
715.744507	71.194839
715.693359	30.845665
715.642151	61.680466
715.591003	52.181973
715.539856	56.915760
715.488647	26.081795
715.437500	33.189163
715.386353	66.366638
715.335144	59.245487
715.283936	52.126842
715.232788	45.010704
715.181580	66.319878
715.130432	37.890396
715.079285	30.780521
715.028015	37.877045
714.976868	35.503471
714.925659	18.931847
714.874451	26.026701
714.823303	68.603752
714.772095	59.130745
714.720886	42.566631
714.669678	59.109898
714.618469	59.099476
714.567261	59.089058
714.516052	42.536621
714.464905	47.254578
714.413635	14.173874
714.362427	44.876019
714.311218	35.422188
714.260010	59.026569
714.208801	61.376804
714.157593	56.645519
714.106384	47.196274
714.055176	73.141319
714.003906	40.102680
713.952698	51.888428
713.901489	56.595573
713.850281	47.154655
713.799011	23.573168
713.747803	49.494919
713.696594	44.773216
713.645325	56.545658
713.594055	49.468719
713.542847	30.618088
713.491577	35.322327
713.440369	51.796936
713.389160	25.893898
713.337891	51.778652
713.286621	44.710033
713.235413	30.585674
713.184143	28.227945
713.132874	39.982529
713.081665	44.678467
713.030396	63.479240
712.979126	32.909351
712.927917	49.355309
712.876648	39.947239
712.825378	42.289608
712.774109	37.584122
712.722778	63.412003
712.671570	54.008091
712.620300	56.346313
712.569031	53.989010
712.517761	53.979473
712.466492	65.702530
712.415222	21.114939
712.363953	11.728449
712.312622	28.143303
712.261353	44.552357
712.210083	44.544483
712.158813	63.288868
712.107544	51.559593
712.056213	25.775240
712.004944	28.113472
711.953674	51.532257
711.902344	32.787457
711.851074	37.464752
711.799805	58.528328
711.748474	11.703596
711.697144	51.486717
711.645874	28.078697
711.594604	42.110600
711.543274	53.798473
711.492004	30.402454
711.440674	46.764732
711.389404	56.107754
711.338074	51.423012
711.286743	72.446877
711.235413	39.721905
711.184082	60.740402
711.132812	63.065414
711.081482	42.036171
711.030212	30.354084
710.978821	42.021294
710.927490	35.011551
710.876221	53.674873
710.824829	34.999157
710.773560	44.324421
710.722229	41.984123
710.670898	9.328154
710.619568	44.300888
710.568237	18.649704
710.516907	44.285206
710.465515	30.295038
710.414185	44.269524
710.362854	44.261688
710.311523	58.228748
710.260193	39.588539
710.208862	51.223152
710.157471	58.197819
710.106140	48.877510
710.054810	27.925060
710.003418	25.593437
709.952087	44.199017
709.900757	44.191185
709.849365	44.183357
709.797974	41.850502
709.746643	76.712326
709.695251	30.214653
709.643921	18.590338
709.592529	27.880566
709.541199	39.490471
709.489807	58.063927
709.438477	30.187891
709.387024	39.469475
709.335693	58.033058
709.284302	27.850931
709.232910	30.166494
709.181519	32.481236
709.130188	55.672245
709.078796	46.385311
709.027405	46.377087
708.976013	46.368866
708.924622	39.406548
708.873230	39.399559
708.821838	67.199089
708.770447	41.702385
708.719116	48.644154
708.667664	34.739658
708.616272	37.049065
708.564880	62.509205
708.513489	69.442352
708.462036	60.172695
708.410706	34.708858
708.359253	39.329727
708.307861	37.009644
708.256470	48.566540
708.205017	36.996510
708.153625	53.173046
708.102234	30.048998
708.050781	55.465225
707.999329	48.523460
707.947937	60.065998
707.896545	50.816055
707.845093	62.354088
707.793701	46.180012
707.742249	43.863224
707.690857	50.779980
707.639404	30.001022
707.587952	76.142921
707.536499	57.673786
707.485107	46.130836
707.433655	43.816513
707.382202	23.057226
707.330750	39.190323
707.279297	55.317688
707.227905	20.740448
707.176453	46.081696
707.125061	41.466160
707.073547	50.671856
707.022095	18.422855
706.970642	80.585670
706.919250	27.624464
706.867737	50.635853
706.816345	46.024414
706.764832	46.016232
706.713379	25.304430
706.661926	80.499786
706.610474	62.088799
706.559021	52.881054
706.507507	45.975353
706.456055	34.475384
706.404602	50.554909
706.353149	34.463127
706.301636	32.159866
706.250183	25.263973
706.198730	32.148430
706.147217	41.326344
706.095764	68.864990
706.044250	50.492012
705.992798	32.125565
705.941345	20.648476
705.889832	38.995739
705.838379	61.923393
705.786804	75.670685
705.735352	38.974930
705.683838	48.136936
705.632385	48.128372
705.580872	41.245552
705.529419	45.820236
705.477844	50.393288
705.426331	34.352947
705.374817	34.346832
705.323364	54.945148
705.271851	50.357422
705.220337	29.751362
705.168823	36.610542
705.117310	59.481541
705.065796	59.470951
705.014282	34.304054
704.962830	29.724888
704.911255	43.436333
704.859741	54.857174
704.808228	66.273949
704.756714	41.128227
704.705200	61.681355
704.653625	36.545403
704.602173	38.822575
704.550598	52.515305
704.499084	59.354553
704.447571	59.343979
704.395996	54.769299
704.344482	50.196243
704.292969	59.312263
704.241455	61.582531
704.189880	31.925993
704.138306	57.000542
704.086792	63.829227
704.035278	31.908926
703.983704	70.642883
703.932129	36.454346
703.880615	25.057896
703.829041	54.662025
703.777527	59.206638
703.725952	36.428360
703.674377	27.316399
703.622803	50.071133
703.571289	63.715534
703.519714	50.053276
703.468140	50.044353
703.416565	45.486752
703.364990	31.835047
703.313416	13.641158
703.261902	45.462418
703.210327	36.363445
703.158752	56.807751
703.107178	38.622379
703.055542	52.244484
703.004028	34.066410
702.952393	59.037907
702.900818	40.865105
702.849243	36.318054
702.797668	27.233681
702.746094	22.690683
702.694519	72.597229
702.642883	38.560394
702.591309	29.482098
702.539734	9.069796
702.488098	61.210190
702.436584	-2.266639
702.384949	40.792225
702.333374	31.721621
702.281738	58.901062
702.230164	90.600838
702.178528	36.233864
702.126892	67.926361
702.075317	22.638077
702.023682	33.951050
701.972107	33.944984
701.920471	33.938923
701.868835	47.506004
701.817261	76.900742
701.765625	63.318710
701.714050	24.870764
701.662415	81.380684
701.610779	33.902557
701.559204	45.195335
701.507507	45.187260
701.455933	24.848551
701.404297	-2.258555
701.352661	56.453793
701.301025	47.412712
701.249390	49.661579
701.197754	40.624939
701.146118	11.282688
701.094482	42.866550
701.042847	58.649002
700.991211	58.638515
700.939575	45.098484
700.887939	65.381111
700.836243	60.861183
700.784607	40.566864
700.732971	47.319546
700.681335	45.058174
700.629700	20.272551
700.578003	42.789951
700.526367	42.782299
700.474670	38.272049
700.423035	49.519676
700.371399	54.011799
700.319702	54.002132
700.268066	42.744041
700.216370	58.481377
700.164734	33.733219
700.113037	40.472618
700.061401	42.713451
