#Wave		#Intensity
899.963257	108.412140
899.920715	108.412140
899.878235	135.493423
899.835815	94.830177
899.793274	103.844955
899.750793	90.285469
899.708252	103.811630
899.665771	112.820618
899.623230	108.290413
899.580688	126.318542
899.538208	117.276962
899.495667	94.708504
899.453186	148.803757
899.410645	108.203552
899.368103	85.647400
899.325623	99.154762
899.283020	103.645164
899.240540	112.639709
899.197998	108.116768
899.155396	166.653275
899.112854	144.109436
899.070312	81.048553
899.027771	103.545418
898.985229	94.526299
898.942688	130.515381
898.900085	148.493668
898.857544	116.976242
898.814941	134.950928
898.772400	152.919846
898.729797	116.919945
898.687256	103.412590
898.644714	85.414085
898.602112	98.884651
898.559570	58.422466
898.516907	112.332870
898.474304	103.329659
898.431763	121.280579
898.389221	76.349594
898.346558	71.846916
898.304016	94.283943
898.261353	98.757812
898.218750	116.695053
898.176147	112.188782
898.133606	112.170784
898.090942	103.180573
898.048340	121.105583
898.005676	130.055496
897.963074	98.646973
897.920471	143.463486
897.877808	112.062866
897.835205	107.563095
897.792542	94.102615
897.749939	125.450027
897.707275	161.267014
897.664673	156.762222
897.622009	147.780685
897.579346	107.459618
897.536743	138.779739
897.494080	134.281433
897.451477	111.883247
897.408752	107.390694
897.366089	76.056206
897.323425	143.141663
897.280823	138.646240
897.238098	98.378326
897.195435	120.717674
897.152710	89.406158
897.110046	134.087723
897.067383	138.535095
897.024719	151.917358
896.982056	89.348816
896.939331	142.935181
896.896667	120.582214
896.854004	165.215790
896.811279	151.795578
896.768555	129.451935
896.725830	151.746887
896.683167	138.335266
896.640442	133.851379
896.597778	169.517883
896.555054	151.649582
896.512268	111.489159
896.469604	124.847839
896.426880	164.951035
896.384094	142.637482
896.341431	102.504250
896.298706	111.399796
896.255920	164.845261
896.213257	115.818642
896.170532	133.615463
896.127747	164.765976
896.085022	146.929871
896.042236	164.713150
895.999512	133.529785
895.956787	115.707260
895.913940	160.184357
895.871216	133.465561
895.828430	200.166245
895.785767	128.975342
895.742981	142.294800
895.700195	128.933990
895.657410	160.030319
895.614624	137.781799
895.571838	173.310593
895.529114	168.839661
895.486267	124.388222
895.443481	199.877594
895.400757	177.640488
895.357910	146.529907
895.315125	239.737778
895.272339	168.677307
895.229553	133.144943
895.186768	199.685410
895.143921	186.343170
895.101135	177.441238
895.058350	186.283417
895.015442	199.557388
894.972656	159.620316
894.929871	181.760666
894.887024	146.271713
894.844238	146.248260
894.801392	128.500595
894.758545	128.479996
894.715698	155.037216
894.672913	159.441284
894.630066	150.559296
894.587219	159.390167
894.544373	154.937820
894.501526	168.191254
894.458679	141.612030
894.415894	176.986664
894.372986	168.110382
894.330078	159.236938
894.287292	159.211411
894.244446	176.873215
894.201538	159.160370
894.158691	163.555283
894.115845	176.788177
894.072876	176.759842
894.030029	198.822952
893.987183	172.285599
893.944275	176.674866
893.901428	176.646545
893.858521	203.110962
893.815552	198.663666
893.772766	189.803741
893.729858	203.013321
893.686951	198.568161
893.644043	172.064819
893.601135	220.560562
893.558167	238.167236
893.515320	220.489868
893.472412	264.545441
893.429504	260.094666
893.386536	238.014587
893.343689	193.906738
893.300720	189.469391
893.257812	171.816788
893.214844	193.813522
893.171936	220.207336
893.129028	237.785812
893.086060	246.553177
893.043091	268.523804
893.000183	228.868866
892.957275	211.229706
892.914307	224.395599
892.871338	197.964386
892.828430	259.511719
892.785461	206.696548
892.742493	184.677948
892.699524	224.215866
892.656555	290.115204
892.613525	254.908875
892.570618	237.290924
892.527649	237.252899
892.484619	254.786346
892.441711	276.706329
892.398682	237.138855
892.355652	285.399200
892.312744	215.112610
892.269775	285.307739
892.226746	201.877731
892.183777	276.440430
892.140686	250.072678
892.097717	250.032608
892.054749	223.677551
892.011719	271.878143
891.968750	214.837006
891.925720	263.023590
891.882751	284.896545
891.839722	249.792328
891.796692	311.094971
891.753662	275.997803
891.710632	240.911850
891.667603	240.873260
891.624573	218.940598
891.581482	201.393082
891.538513	302.041229
891.495422	253.849045
891.452454	275.688416
891.409363	275.644226
891.366272	279.974670
891.323242	249.312500
891.280273	258.018951
891.237122	275.467621
891.194092	275.423492
891.151062	332.203674
891.107971	275.335266
891.064880	279.660858
891.021851	301.461060
890.978760	235.888245
890.935730	336.305267
890.892639	323.150696
890.849548	288.169312
890.806458	331.778168
890.763367	318.630615
890.720276	327.307770
890.677185	274.894470
890.634155	314.114777
890.591003	362.046539
890.547913	314.014160
890.504761	270.357758
890.461731	305.193726
890.418579	292.067200
890.375488	239.718262
890.332336	265.826752
890.289246	309.355347
890.246155	365.939240
890.203003	309.256226
890.159912	317.916748
890.116760	269.968231
890.073669	296.046753
890.030457	256.822937
889.987366	343.826508
889.944214	291.552979
889.901062	361.119720
889.857910	317.560425
889.814758	408.847931
889.771606	317.458710
889.728516	373.932556
889.685364	382.567352
889.642212	347.732819
889.598999	343.331146
889.555908	391.074097
889.512695	347.565735
889.469543	334.478424
889.426392	330.081696
889.383240	330.028809
889.340027	356.026672
889.296875	316.899811
889.253723	381.955017
889.210449	351.515930
889.167297	329.764587
889.124146	351.403351
889.080933	307.970886
889.037781	286.236938
888.994507	251.501266
888.951294	403.204681
888.908081	333.782654
888.864868	355.399933
888.821716	329.342285
888.778503	337.955048
888.735291	359.561249
888.692078	359.503662
888.648804	277.163239
888.605652	346.398560
888.562378	367.989532
888.519226	367.930603
888.475952	307.281036
888.432739	354.831116
888.389465	333.141724
888.346252	302.807617
888.303040	333.035034
888.259766	397.848236
888.216492	350.223328
888.173279	363.136414
888.130066	363.078247
888.086731	354.376770
888.043457	362.961975
888.000244	349.942993
887.956970	315.330200
887.913696	328.236420
887.870483	371.365936
887.827209	332.448792
887.783936	392.831116
887.740601	323.710052
887.697327	349.550873
887.654053	340.865417
887.610779	332.182709
887.567505	340.756226
887.524231	383.828461
887.480957	405.326935
887.437622	323.347351
887.394348	405.197144
887.351074	327.553741
887.307739	400.758148
887.264404	336.065918
887.221130	387.706268
887.177734	383.337006
887.134460	413.420898
887.091125	421.966248
887.047852	421.898682
887.004517	352.960754
886.961182	421.763580
886.917908	425.999054
886.874573	370.000519
886.831238	374.242920
886.787842	417.192535
886.744568	425.726257
886.701172	348.265717
886.657837	412.693268
886.614502	442.714600
886.571167	459.833740
886.527832	412.495056
886.484436	390.948334
886.441101	360.817596
886.397766	360.759827
886.354370	382.172424
886.310974	356.350922
886.267639	510.830933
886.224304	459.245026
886.180908	416.258270
886.137451	467.679260
886.094177	398.965179
886.050781	411.769104
886.007385	446.011749
885.963989	458.804016
885.920593	458.730530
885.877197	527.241333
885.833862	522.871094
885.790405	454.225098
885.747009	492.712463
885.703613	462.647186
885.660217	505.403931
885.616821	565.276611
885.573364	573.749512
885.529968	492.318146
885.486511	487.958954
885.443115	522.118103
885.399719	551.987305
885.356323	509.116058
885.312805	538.977722
885.269409	543.168396
885.225952	602.948669
885.182556	508.790070
885.139099	500.158875
885.095642	568.465637
885.052185	602.562561
885.008728	491.373077
884.965332	538.287781
884.921875	516.844360
884.878418	546.656921
884.835022	585.000061
884.791504	508.057404
884.748108	495.169922
884.704590	533.502869
884.661072	554.754150
884.617615	537.598694
884.574219	622.832092
884.530762	588.610046
884.487244	554.398987
884.443726	596.949463
884.400269	635.223083
884.356812	558.395264
884.313232	630.757812
884.269836	553.955322
884.226257	630.555847
884.182739	630.454895
884.139343	617.576538
884.095825	579.151428
884.052307	604.605408
884.008789	561.937622
883.965332	655.488892
883.921753	634.105286
883.878235	595.708252
883.834717	608.375977
883.791199	591.263794
883.747681	612.434204
883.704163	637.850159
883.660645	620.741455
883.617126	578.132324
883.573547	561.038635
883.530029	569.447998
883.486511	577.854736
883.442932	556.520935
883.399414	607.402710
883.355896	564.836548
883.312317	602.962036
883.268738	641.075317
883.225220	602.768982
883.181641	615.405029
883.138062	691.689392
883.094482	577.022705
883.050964	606.625244
883.007385	619.252502
882.963745	670.042664
882.920227	669.935425
882.876648	631.673401
882.833069	661.243469
882.789429	644.185364
882.745911	677.981262
882.702332	660.925964
882.658691	686.236267
882.615112	635.302246
882.571533	643.669922
882.527954	690.140747
882.484314	639.230530
882.440735	694.152466
882.397156	639.025879
882.353516	727.780518
882.309875	693.819153
882.266296	714.857727
882.222656	680.909302
882.179016	621.600220
882.135437	693.375000
882.091797	600.265137
882.048218	655.114136
882.004517	646.557495
881.960876	650.679199
881.917236	730.840820
881.873657	591.337158
881.829956	709.491028
881.786316	671.375061
881.742737	645.936768
881.699036	637.391113
881.655396	603.525391
881.611694	679.384827
881.568054	628.646790
881.524414	615.890869
881.480774	679.058655
881.437073	657.864502
881.393372	615.595154
881.349731	615.496643
881.306091	602.752930
881.262390	665.872131
881.218689	640.483337
881.174988	602.463501
881.131348	602.367065
881.087646	543.307068
881.044006	560.064148
881.000244	602.077820
880.956604	547.255859
880.912903	618.721069
880.869141	496.580933
880.825500	626.938232
880.781799	588.975220
880.738098	538.405396
880.694397	534.113586
880.650574	555.052856
880.606934	563.372559
880.563232	588.503967
880.519470	584.206848
880.475769	592.517822
880.432007	550.407166
880.388306	533.515381
880.344604	558.631409
880.300842	550.142883
880.257080	550.054810
880.213379	638.129395
880.169617	545.681152
880.125854	574.971985
880.082092	553.898926
880.038391	486.681732
879.994629	532.747253
879.950867	532.661987
879.907104	545.157288
879.863342	591.191345
879.819580	477.907959
879.775818	477.831482
879.732056	465.182495
879.688293	498.629303
879.644531	423.138641
879.600708	473.336761
879.556946	418.815033
879.513123	481.560211
879.469299	477.296295
879.425598	452.103058
879.381775	426.917877
879.338013	497.991150
879.294189	468.622528
879.250427	384.878296
879.206604	393.182281
879.162781	388.937225
879.119019	409.782227
879.075134	443.162872
879.031372	426.371490
878.987549	401.226562
878.943726	442.950104
878.899963	434.522980
878.856140	401.033936
878.812317	405.146515
878.768433	338.264069
878.724609	392.490509
878.680786	329.806244
878.636963	425.757629
878.593079	354.741211
878.549255	342.166168
878.505432	408.864838
878.461609	304.513824
878.417725	367.026398
878.373840	325.266785
878.330017	329.384125
878.286194	325.162659
878.242310	358.455292
878.198425	316.723724
878.154602	308.339539
878.110718	304.124084
878.066895	224.932495
878.022949	274.873474
877.979065	278.993561
877.935181	278.948914
877.891296	320.531769
877.847473	349.615051
877.803589	245.523636
877.759705	287.091858
877.715759	299.526154
877.671936	253.724594
877.627991	278.636505
877.584106	299.382324
877.540222	266.075043
877.496277	270.189209
877.452393	249.365494
877.408447	261.791840
877.364563	282.523743
877.320679	257.553955
877.276672	274.126434
877.232788	195.180008
877.188904	274.038696
877.144958	199.268967
877.101013	232.443237
877.057068	215.805603
877.013184	298.759918
876.969238	257.224304
876.925354	194.961411
876.881348	199.077652
876.837402	207.339355
876.793457	219.744537
876.749512	203.127518
876.705566	227.963776
876.661560	261.080353
876.617676	207.173462
876.573730	198.854675
876.529724	260.954987
876.485779	202.932495
876.441833	202.900024
876.397888	223.568314
876.353821	169.719131
876.309875	211.080246
876.265869	194.493790
876.221924	161.362640
876.177917	153.063126
876.133972	223.353668
876.089966	215.046875
876.046021	165.394196
876.002014	194.307068
875.958008	194.275955
875.913940	202.510605
875.869995	206.610397
875.825989	198.314224
875.781982	194.151596
875.737976	202.380966
875.693970	156.923370
875.649902	144.511551
875.605896	185.770813
875.561890	198.123825
875.517883	210.472855
875.473877	222.817947
875.429810	132.019119
875.385864	156.747620
875.341736	169.095352
875.297791	222.675293
875.253723	210.270782
875.209656	226.726303
875.165588	214.325104
875.121521	226.653717
875.077454	230.737762
875.033447	185.384583
874.989380	218.306900
874.945374	181.206894
874.901306	193.530930
874.857239	205.851013
874.813110	226.399857
874.769104	193.438004
874.725037	185.176941
874.680969	242.748688
874.636841	213.913742
874.592773	189.201096
874.548706	222.070068
874.504639	230.258026
874.460571	238.443344
874.416443	246.626038
874.372437	193.159470
874.328308	226.001495
874.284180	246.507614
874.240051	234.144745
874.196045	254.642990
874.151917	217.643829
874.107788	221.714813
874.063660	266.836212
874.019531	254.479950
873.975464	209.296768
873.931335	209.263275
873.887207	250.255203
873.843079	274.826477
873.798950	225.567703
873.754822	237.833313
873.710754	237.795242
873.666565	241.856430
873.622437	254.113525
873.578308	282.758484
873.534180	266.324036
873.489990	249.894867
873.445862	311.294556
873.401672	319.435394
873.357605	217.017502
873.313416	237.452820
873.269287	274.255035
873.225098	306.952759
873.180969	315.087708
873.136780	274.123322
873.092590	306.805359
873.048462	282.215729
873.004272	290.349396
872.960083	282.125366
872.915894	282.080200
872.871765	265.685181
872.827576	253.382217
872.783386	265.600128
872.739197	269.643097
872.695007	216.496918
872.650818	281.809357
872.606567	257.263000
872.562439	269.470459
872.518188	273.509552
872.474060	322.444702
872.429810	318.312134
872.385559	306.020355
872.341370	310.050995
872.297241	346.712036
872.252930	326.264954
872.208740	375.144623
872.164551	322.083496
872.120361	366.871796
872.076050	326.056061
872.031860	378.979462
871.987610	325.951660
871.943359	362.563141
871.899109	313.628021
871.854919	370.591949
871.810608	309.455811
871.766418	289.050568
871.722168	350.061554
871.677917	354.075317
871.633667	333.672729
871.589417	313.276672
871.545166	325.430145
871.500916	321.310791
871.456665	345.658783
871.412354	345.603455
871.368103	304.895386
871.323853	256.071106
871.279602	316.989685
871.235229	337.255524
871.190979	381.890869
871.146790	316.837433
871.102417	398.014038
871.058105	349.221710
871.013916	397.886597
870.969604	381.585205
870.925293	361.230286
870.880981	328.707489
870.836731	352.999664
870.792419	344.829498
870.748047	401.560638
870.703796	409.607391
870.659485	356.828491
870.615173	360.825562
870.570862	312.124939
870.526550	344.498352
870.482178	344.443176
870.437866	295.768524
870.393555	307.874084
870.349243	279.472504
870.304932	283.477448
870.260559	238.892715
870.216248	279.338287
870.171875	275.245819
870.127563	222.589630
870.083252	323.714905
870.038879	287.250977
869.994507	206.302155
869.950195	266.936523
869.905823	262.849915
869.861511	206.203064
869.817078	266.808289
869.772766	194.011322
869.728394	161.650208
869.684021	189.908585
869.639648	189.878159
869.595276	169.651184
869.550903	205.972015
869.506531	234.205185
869.462158	193.793930
869.417786	165.505814
869.373413	177.587555
869.328979	173.523666
869.284607	165.426300
869.240234	153.297394
869.195862	133.105362
869.151428	153.248291
869.107056	157.255951
869.062622	133.041412
869.018250	92.710991
868.973877	104.786942
868.929443	137.007126
868.885010	136.985184
868.840637	104.736603
868.796143	116.802887
868.751770	108.730095
868.707336	136.897446
868.662903	140.901276
868.618469	120.753181
868.574036	104.635994
868.529663	120.714508
868.485229	96.556137
868.440735	80.450562
868.396301	92.503326
868.351868	80.424789
868.307434	92.473694
868.263000	112.558647
868.218506	96.463387
868.174072	72.335953
868.129578	84.378426
868.085144	84.364914
868.040710	80.334663
867.996277	64.257439
867.951721	76.293488
867.907288	84.310875
867.862793	68.240730
867.818359	44.148693
867.773865	72.231743
867.729370	84.256866
867.684937	40.115891
867.640442	56.153252
867.595947	64.164864
867.551514	52.125603
867.506958	60.135292
867.462463	20.041887
867.417969	32.061882
867.373535	24.042561
867.328979	60.096771
867.284485	28.040668
867.239929	60.077522
867.195435	28.031685
867.150940	32.031082
867.106445	48.038925
867.061890	52.033833
867.017395	72.035301
866.972839	92.030365
866.928345	36.006115
866.883789	44.000423
866.839294	55.991566
866.794739	43.986328
866.750183	15.992465
866.705688	75.952042
866.661133	39.968357
866.616638	67.935318
866.572021	59.933327
866.527527	43.944065
866.482910	55.919849
866.438416	39.936352
866.393860	23.957972
866.349304	43.915913
866.304749	79.834320
866.260193	63.857227
866.215637	67.837433
866.171021	51.867374
866.126465	51.859062
866.081909	47.862236
866.037292	47.854568
865.992676	55.821384
865.948181	31.892824
865.903564	75.733322
865.859009	35.867931
865.814392	35.862186
865.769836	31.872391
865.725159	75.684799
865.680603	27.879406
865.635986	51.767746
865.591431	55.740948
865.546753	63.693733
865.502197	55.723087
865.457581	55.714161
865.412964	71.621017
865.368347	23.869846
865.323792	23.866022
865.279114	71.586594
865.234497	67.598724
865.189880	23.854551
865.145264	63.601948
865.100647	47.693817
865.055969	19.869240
865.011353	39.732113
864.966675	39.725746
864.922058	79.438759
864.877441	19.856508
864.832825	71.471977
864.788147	47.640347
864.743469	35.724537
864.698853	15.875028
864.654175	63.489933
864.609497	35.707367
864.564880	51.569042
864.520203	39.662136
864.475586	39.655781
864.430908	47.579311
864.386169	55.500301
864.341492	35.673050
864.296875	59.445553
864.252136	71.323235
864.207520	55.464737
864.162781	91.106033
864.118103	39.604973
864.073425	47.518353
864.028687	59.388420
863.984009	71.254684
863.939331	71.243263
863.894653	98.933121
863.849976	63.307053
863.805237	59.340847
863.760559	75.153030
863.715820	83.050560
863.671143	55.358170
863.626404	90.930984
863.581665	47.434650
863.536987	59.283813
863.492249	79.032417
863.447571	79.019745
863.402832	31.602833
863.358093	31.597769
863.313354	51.338146
863.268616	35.536095
863.223877	35.530399
863.179138	55.260654
863.134338	47.358685
863.089600	27.621471
863.044861	63.124672
863.000183	59.169895
862.955444	63.104439
862.910645	51.264137
862.865906	70.969742
862.821106	47.305576
862.776367	70.946991
862.731628	59.113014
862.686890	63.043777
862.642090	55.154461
862.597290	47.267677
862.552490	70.890152
862.507751	39.377102
862.463013	23.622475
862.418213	51.173824
862.373352	27.550720
862.328613	35.416676
862.283813	43.280109
862.239014	27.537474
862.194275	23.599766
862.149475	35.393974
862.104675	55.048466
862.059814	35.382626
862.015076	43.238499
861.970215	62.882282
861.925415	55.013176
861.880615	23.573296
861.835754	66.780296
861.790955	23.565739
861.746155	62.831898
861.701294	31.410912
861.656494	54.960285
861.611694	35.325947
861.566833	54.942661
861.522034	43.162315
861.477173	54.925049
861.432373	54.916245
861.387512	43.141560
861.342651	27.449318
861.297852	66.651939
861.252991	23.520443
861.208130	11.758336
861.163269	50.944622
861.118408	39.181889
861.073608	66.598526
861.028687	43.086258
860.983826	58.744568
860.938965	11.747029
860.894165	3.915049
860.849243	43.058632
860.804382	31.310347
860.759460	23.478994
860.714600	54.775539
860.669739	39.119110
860.624817	58.669258
860.580017	46.927879
860.535095	23.460178
860.490173	43.003429
860.445251	19.543879
860.400391	19.540745
860.355469	23.445135
860.310608	3.906896
860.265686	42.968964
860.220764	19.528215
860.175903	46.860203
860.130920	19.521954
860.086060	31.230116
860.041138	31.225107
859.996216	42.927639
859.951294	31.215094
859.906372	54.617657
859.861450	35.105721
859.816467	50.700130
859.771606	27.295692
859.726685	35.088833
859.681702	15.592536
859.636780	7.795018
859.591858	46.762604
859.546936	46.755108
859.501953	42.851974
859.457031	62.320148
859.412109	31.155077
859.367065	31.150080
859.322144	27.251949
859.277161	38.925110
859.232239	38.918869
859.187256	62.260204
859.142273	38.906387
859.097290	15.560059
859.052429	46.672688
859.007385	27.221369
858.962402	31.105145
858.917419	27.212637
858.872498	11.660687
858.827454	19.431362
858.782532	23.313894
858.737488	19.425129
858.692505	69.919250
858.647522	34.954018
858.602478	15.532627
858.557495	7.765068
858.512512	15.527644
858.467529	27.169020
858.422485	0.000000
858.377502	46.560520
858.332458	15.517684
858.287537	65.939575
858.242493	27.147236
858.197449	15.510218
858.152405	34.892391
858.107422	50.392036
858.062378	7.751377
858.017334	38.750668
857.972290	15.497781
857.927307	38.738235
857.882263	23.239214
857.837219	23.235485
857.792236	27.103718
857.747131	30.970707
857.702087	34.836456
857.657043	11.610290
857.611938	65.781082
857.566956	34.819691
857.521912	15.472936
857.476807	58.014202
857.431763	11.600979
857.386719	34.797352
857.341614	34.791771
857.296570	3.865132
857.251465	15.458047
857.206421	15.455566
857.161316	27.042902
857.116272	27.038563
857.071167	38.620319
857.026123	3.861413
856.981018	38.607929
856.935974	50.182255
856.890869	30.876432
856.845764	84.896561
856.800659	11.574946
856.755554	46.292358
856.710510	61.713238
856.665344	53.990417
856.620239	38.558395
856.575134	23.131325
856.530029	42.400623
856.484924	23.123901
856.439758	26.973557
856.394653	38.527470
856.349548	15.408514
856.304443	7.703021
856.259338	26.956245
856.214233	57.754116
856.169006	53.895191
856.123962	57.735580
856.078796	42.332630
856.033630	30.782427
855.988525	26.930300
855.943420	34.619114
855.898254	7.691902
855.853027	53.834671
855.807922	49.981316
855.762756	30.752796
855.717590	19.217413
855.672485	23.057194
855.627258	11.526747
855.582153	53.782852
855.536987	49.933205
855.491821	15.361596
855.446655	19.198914
855.401489	34.552498
855.356262	42.224052
855.311096	46.055210
855.265930	53.722450
855.220764	26.856915
855.175537	42.196949
855.130371	30.683764
855.085205	42.183403
855.039978	53.679348
854.994812	53.670731
854.949646	30.664066
854.904358	26.826752
854.859192	26.822445
854.814026	22.986977
854.768799	30.644381
854.723511	49.789127
854.678406	34.463860
854.633179	42.115734
854.587952	30.624708
854.542725	22.964844
854.497498	11.480578
854.452209	30.609961
854.407043	11.476892
854.361755	34.425148
854.316589	-7.648805
854.271301	45.885464
854.226074	34.408569
854.180908	30.580486
854.135681	19.109735
854.090332	53.498669
854.045105	3.820720
853.999878	15.280425
853.954651	26.736450
853.909363	38.188797
853.864136	11.454800
853.818848	30.541227
853.773621	-3.817040
853.728333	41.980701
853.683044	15.263259
853.637817	11.445606
853.592529	30.516716
853.547241	19.069885
853.501953	19.066822
853.456726	38.127522
853.411438	11.436419
853.366089	22.869165
853.320801	41.920071
853.275513	34.292732
853.230225	0.000000
853.184937	34.281719
853.139648	45.701618
853.094421	34.270710
853.049072	-3.807245
853.003784	30.453068
852.958435	49.478287
852.913147	34.248699
852.867859	49.462399
852.822571	11.412566
852.777222	30.428621
852.731873	38.029667
852.686584	60.837696
852.641296	38.017452
852.595886	34.210213
852.550598	38.005241
852.505249	11.399741
852.459900	45.591640
852.414551	45.584316
852.369263	18.990416
852.323914	-11.392419
852.278564	60.749805
852.233215	26.573771
852.187927	37.956432
852.142517	26.565235
852.097168	22.766544
852.051819	30.350515
852.006470	53.104870
851.961121	37.925957
851.915771	7.583973
851.870361	45.496525
851.825012	26.535378
851.779602	18.950796
851.734253	68.211906
851.688843	26.522591
851.643555	53.036659
851.598145	45.452690
851.552734	26.509809
851.507324	26.505550
851.461975	22.715393
851.416565	22.711744
851.371216	22.708096
851.325806	22.704447
851.280396	26.484264
851.235046	26.480009
851.189636	34.040257
851.144165	64.287933
851.098755	34.029320
851.053345	49.145561
851.007935	22.678923
850.962524	-3.779213
850.917175	22.671635
850.871765	22.667992
850.826294	33.996525
850.780945	45.321415
850.735474	33.985600
850.690002	33.980137
850.644592	33.974678
850.599182	37.743576
850.553711	49.058762
850.508301	56.597168
850.462891	15.090153
850.417419	26.403522
850.372009	15.085303
850.326538	64.102234
850.281067	30.160910
850.235657	26.386555
850.190186	48.995724
850.144714	64.061035
850.099182	41.444595
850.053772	26.369595
850.008301	18.832397
849.962830	37.658741
849.917358	37.652691
849.871887	37.646637
849.826355	15.056234
849.780945	37.634537
849.735474	41.391335
849.690002	22.573463
849.644470	22.569836
849.598999	52.654484
849.553528	41.364731
849.507996	60.157207
849.462524	11.277663
849.417053	26.310318
849.371521	22.548077
849.325989	30.059269
849.280518	48.838459
849.234985	3.756201
849.189514	37.555965
849.143982	3.754993
849.098450	41.298283
849.052979	30.030285
849.007446	41.285004
848.961914	30.020630
848.916443	67.535561
848.870911	18.756861
848.825378	48.759998
848.779846	45.001995
848.734253	37.495632
848.688721	18.744802
848.643250	37.483578
848.597656	11.243265
848.552124	37.471523
848.506592	18.732750
848.461060	14.983789
848.415466	26.217415
848.369934	29.957943
848.324341	22.464844
848.278809	52.409542
848.233276	41.172302
848.187683	29.938679
848.142151	48.642529
848.096558	37.411312
848.050964	52.367416
848.005371	63.578781
847.959839	26.175287
847.914246	22.432352
847.868652	52.333736
847.823120	37.375229
847.777466	59.790752
847.731934	41.099529
847.686340	33.621479
847.640747	29.880953
847.595093	29.876148
847.549500	70.944443
847.503906	22.399904
847.458313	26.129019
847.412720	33.589050
847.367188	26.120613
847.321533	29.847328
847.275879	41.033474
847.230286	55.945740
847.184692	37.291161
847.139038	18.642580
847.093445	55.918747
847.047791	37.273167
847.002197	26.087021
846.956543	22.356707
846.910950	48.431736
846.865356	37.249191
846.819641	33.518879
846.773987	37.237206
846.728333	22.338730
846.682739	14.890091
846.637085	33.497314
846.591431	26.049274
846.545776	37.207264
846.500183	66.962296
846.454468	18.597647
846.408813	55.783962
846.363159	52.056656
846.317505	63.201481
846.271851	7.434272
846.226135	14.866152
846.180481	44.591278
846.134827	63.160816
846.089172	52.006420
846.043457	18.570732
845.997803	63.130333
845.952148	44.555416
845.906433	55.685310
845.860718	44.541080
845.815002	29.689274
845.769348	33.395058
845.723633	14.839860
845.677979	40.803047
845.632324	18.543856
845.586548	70.455307
845.540894	29.660620
845.495178	37.069809
845.449463	29.651073
845.403748	40.763664
845.358032	37.051914
845.312317	55.568924
845.266602	66.671982
845.220886	48.144234
845.175110	37.028065
845.129456	22.213264
845.083679	11.104844
845.037964	62.917324
844.992249	40.704655
844.946533	44.397930
844.900818	40.691555
844.854980	40.685005
844.809265	33.282372
844.763550	40.671906
844.717773	22.181105
844.672058	29.570045
844.626282	48.043591
844.580505	25.865461
844.534729	59.111538
844.489014	25.857134
844.443237	51.705944
844.397522	18.463436
844.351746	51.689297
844.305969	59.063972
844.260193	51.672653
844.214417	25.832169
844.168640	47.966301
844.122803	33.202095
844.077087	51.639385
844.031250	40.567272
843.985474	29.498720
843.939697	33.180717
843.893982	66.350746
843.848145	58.968945
843.802368	33.164692
843.756531	14.737489
843.710754	58.940464
843.664917	62.614159
843.619141	44.191113
843.573303	51.547997
843.527527	44.176884
843.481689	33.127327
843.435913	55.203320
843.390137	11.038886
843.344299	47.827469
843.298462	29.427549
843.252625	51.489918
843.206787	14.709036
843.160950	44.119999
843.115112	51.465042
843.069336	33.079342
843.023438	40.423798
842.977661	44.091583
842.931763	40.410774
842.885986	47.750496
842.840088	33.052711
842.794250	44.063183
842.748413	47.727428
842.702576	73.414986
842.656677	36.701580
842.610840	33.026100
842.565002	29.351805
842.519104	25.678692
842.473206	25.674557
842.427429	62.342449
842.381531	54.999184
842.335632	36.660213
842.289795	43.985172
842.243835	40.313244
842.197998	43.971001
842.152161	25.645618
842.106262	21.978416
842.060303	54.937191
842.014465	40.280781
841.968567	84.209885
841.922668	62.232059
841.876770	32.941074
841.830933	51.233418
841.784973	32.930462
841.739075	51.216908
841.693237	76.812988
841.647278	51.200405
841.601318	25.596077
841.555420	40.215927
841.509521	29.243235
841.463562	47.512596
841.417664	51.159168
841.371765	58.458199
841.325867	65.754875
841.279907	54.786900
841.234009	25.563099
841.188049	18.256414
841.142090	10.952084
841.096130	58.401695
841.050232	47.443729
841.004272	47.436085
840.958374	65.670151
840.912415	36.477535
840.866455	51.060318
840.820496	61.991821
840.774536	40.105888
840.728638	32.808620
840.682678	43.737778
840.636719	65.596092
840.590759	61.941879
840.544800	40.073578
840.498779	14.569861
840.452820	32.776905
840.406799	50.978077
840.360901	76.454788
840.314880	54.601757
840.268921	32.755775
840.222900	40.028381
840.176941	32.745213
840.130981	32.739933
840.084961	69.106499
840.039001	25.456184
839.992981	36.360115
839.947021	10.906276
839.901001	54.522587
839.854980	65.416557
839.808960	98.109009
839.763000	18.165405
839.716980	32.692459
839.670959	36.319096
839.625000	25.419270
839.578918	43.568863
839.532959	36.301533
839.486877	36.295677
839.440857	54.434738
839.394836	47.169167
839.348816	68.928429
839.302795	39.899498
839.256775	32.639778
839.210754	65.269035
839.164673	14.501890
839.118652	79.747536
839.072571	57.988853
839.026611	57.979500
838.980530	28.985075
838.934509	54.338249
838.888428	32.597691
838.842407	47.077961
838.796265	43.449570
838.750244	76.024483
838.704224	72.392593
838.658142	39.809502
838.612061	43.421543
838.566040	72.357567
838.519958	50.642128
838.473877	50.633957
838.427734	39.777405
838.381714	47.002079
838.335632	7.229923
838.289551	54.215672
838.243469	54.206924
838.197388	32.518909
838.151245	57.802067
838.105225	61.404789
838.059143	61.394882
838.013000	61.384975
837.966919	50.544178
837.920837	57.755455
837.874695	57.746136
837.828613	57.736820
837.782471	57.727505
837.736450	61.325577
837.690308	86.563316
837.644165	43.274673
837.598083	57.690254
837.551880	46.865768
837.505798	43.253727
837.459717	57.662331
837.413513	61.256340
837.367432	36.027325
837.321289	72.043022
837.275146	14.406280
837.229004	32.408897
837.182861	32.403667
837.136780	35.998264
837.090637	68.385666
837.044434	39.585312
836.998352	46.775089
836.952148	82.742569
836.906006	64.744606
836.859863	39.559761
836.813721	64.723709
836.767578	28.761448
836.721375	50.324409
836.675171	61.098351
836.629028	43.121284
836.582825	32.335743
836.536743	68.253326
836.490540	64.650612
836.444336	50.275692
836.398132	57.448658
836.351990	39.489574
836.305786	53.840729
836.259644	78.953651
836.213440	43.058678
836.167236	86.103447
836.121094	57.393032
836.074890	75.316193
836.028625	60.960407
835.982422	32.267944
835.936218	50.186478
835.890076	78.851730
835.843872	68.088226
835.797668	57.328197
835.751404	53.736507
835.705261	50.145973
835.658997	53.719154
835.612793	68.033272
835.566528	50.121685
835.520325	60.852219
835.474121	28.631714
835.427856	60.832565
835.381653	71.556168
835.335388	46.503998
835.289185	57.226444
835.242920	60.793278
835.196716	57.207962
835.150513	82.223167
835.104248	35.743427
835.057922	32.163891
835.011719	50.024635
834.965454	53.589169
834.919250	25.004238
834.872986	42.857487
834.826660	39.279682
834.780457	42.843643
834.734192	42.836720
834.687927	57.106400
834.641663	53.528603
834.595398	49.951958
834.549072	49.943890
834.502869	60.636353
834.456543	60.626560
834.410278	60.616764
834.364014	35.651161
834.317688	42.774479
834.271423	53.459461
834.225159	57.014214
834.178833	57.005001
834.132568	28.497894
834.086243	32.054951
834.039978	53.416286
833.993652	67.649696
833.947388	64.078835
833.901062	56.949757
833.854736	64.058128
833.808472	67.605988
833.762146	49.806885
833.715820	32.013538
833.669495	53.347275
833.623169	56.894562
833.576843	60.440704
833.530518	24.883327
833.484192	31.987679
833.437866	28.428896
833.391541	49.742527
833.345215	63.944344
833.298889	31.967005
833.252563	63.923676
833.206177	60.362602
833.159851	67.453178
833.113525	70.991867
833.067200	53.235298
833.020813	63.872028
832.974487	42.574471
832.928101	46.114887
832.881775	53.200886
832.835388	56.738438
832.789062	60.274841
832.742676	56.720093
832.696289	85.066383
832.649963	63.789474
832.603577	49.606014
832.557190	46.055283
832.510803	67.300682
832.464417	81.456078
832.418091	28.327967
832.371643	53.106350
832.325317	42.478210
832.278870	70.785568
832.232483	56.619301
832.186096	53.072010
832.139709	60.138554
832.093323	31.832911
832.046936	56.582687
832.000549	60.109383
831.954102	42.423294
831.907776	49.485836
831.861328	56.546097
831.814880	42.402714
831.768494	45.928844
831.722046	56.518665
831.675659	42.382145
831.629272	67.094208
831.582825	74.144760
831.536438	77.662903
831.489929	60.002537
831.443542	49.405861
831.397156	42.341030
831.350708	52.917728
831.304260	31.745501
831.257812	67.007439
831.211365	70.522736
831.164917	49.357929
831.118530	56.399940
831.072021	49.341965
831.025574	59.905548
830.979065	77.512283
830.932678	73.977028
830.886169	49.310040
830.839722	59.866791
830.793274	45.773083
830.746826	45.765675
830.700378	63.357605
830.653931	45.750866
830.607422	49.262192
830.560974	24.627111
830.514465	45.728664
830.468018	56.272324
830.421509	49.230316
830.375061	31.642939
830.328552	38.668446
830.282043	56.235909
830.235535	63.255161
830.189087	52.704102
830.142578	63.234688
830.096130	52.687046
830.049622	84.285629
830.003113	28.090664
829.956543	73.726059
829.910095	77.224319
829.863525	49.134796
829.817078	28.072481
829.770569	42.101906
829.723999	38.587170
829.677490	63.132420
829.630981	70.135780
829.584473	45.580875
829.537964	59.596111
829.491455	70.101723
829.444885	38.549706
829.398376	59.567173
829.351868	84.081223
829.305298	66.553520
829.258789	49.031498
829.212219	70.033661
829.165710	94.530136
829.119141	59.509335
829.072571	83.999580
829.026001	73.487732
828.979492	69.976982
828.932922	83.958786
828.886353	52.465744
828.839783	66.445847
828.793274	59.441921
828.746704	66.424332
828.700134	87.386284
828.653564	73.392593
828.606995	83.863663
828.560425	55.900055
828.513794	73.356941
828.467285	48.896706
828.420715	76.825241
828.374146	94.270248
828.327515	62.836655
828.280945	80.278275
828.234375	73.285683
828.187744	87.230736
828.141113	101.171265
828.094604	66.273880
828.047974	80.213287
828.001404	83.687263
827.954773	94.132919
827.908142	52.287594
827.861572	76.676048
827.814941	66.209496
827.768311	114.976814
827.721680	87.089539
827.675110	27.864136
827.628479	76.613960
827.581909	41.782661
827.535278	66.145164
827.488586	76.576729
827.441956	69.603928
827.395386	59.153755
827.348694	93.934860
827.302063	76.527115
827.255493	76.514709
827.208862	107.798714
827.162170	66.059479
827.115540	66.048767
827.068848	100.794945
827.022217	69.502487
826.975647	79.914909
826.928955	72.953964
826.882263	65.995270
826.835571	65.984573
826.789001	41.667713
826.742249	76.378433
826.695618	62.481316
826.648987	79.824295
826.602295	93.691597
826.555603	52.042450
826.508972	52.034012
826.462280	58.962322
826.415588	93.630867
826.368896	48.541466
826.322266	72.800400
826.275574	79.720840
826.228882	65.845673
826.182190	72.764999
826.135498	62.359890
826.088806	41.566521
826.042053	51.949726
825.995361	62.329563
825.948669	83.092613
825.901978	69.232613
825.855286	72.682465
825.808594	83.052200
825.761841	72.658897
825.715149	69.187729
825.668396	76.094162
825.621765	44.957439
825.575012	65.696373
825.528320	69.142860
825.481567	69.131653
825.434814	82.944527
825.388123	55.287384
825.341370	72.552925
825.294617	82.904182
825.247864	55.260490
825.201172	69.064407
825.154419	79.411186
825.107727	58.685707
825.060974	75.933891
825.014160	89.725494
824.967468	79.359680
824.920654	51.747917
824.873962	79.333939
824.827148	51.731133
824.780396	96.549118
824.733643	82.742958
824.686890	62.047153
824.640137	68.930099
824.593384	79.256752
824.546631	79.243896
824.499817	79.231041
824.453003	79.218185
824.406311	89.536461
824.359497	72.306183
824.312744	82.622231
824.265930	72.282722
824.219177	65.388039
824.172302	72.259262
824.125549	58.486103
824.078735	68.796013
824.031982	96.298790
823.985168	72.212372
823.938354	61.886276
823.891541	92.814354
823.844788	75.614235
823.797974	51.546795
823.751221	58.410217
823.704346	82.448105
823.657532	72.130379
823.610718	85.855568
823.563904	37.770317
823.517090	65.229050
823.470276	89.246315
823.423462	113.255783
823.376648	37.745800
823.329773	82.341110
823.282959	85.758064
823.236084	65.165550
823.189331	89.159431
823.142456	68.573044
823.095642	92.558586
823.048767	95.971100
823.001953	85.674568
822.955017	75.381378
822.908203	82.220879
822.861328	89.058159
822.814514	61.645638
822.767639	82.180840
822.720764	54.778332
822.673950	58.192528
822.627075	75.295746
822.580200	99.237366
822.533386	58.164185
822.486450	85.521675
822.439636	41.043736
822.392700	75.234634
822.345825	82.060814
822.298950	82.047485
822.252075	64.943710
822.205200	95.690979
822.158325	92.258461
822.111450	81.994202
822.064514	81.980881
822.017639	88.798203
821.970764	88.783775
821.923828	68.284119
821.876953	116.064148
821.830078	75.088135
821.783142	105.788818
821.736267	85.299706
821.689331	71.640114
821.642456	61.395836
821.595520	81.847816
821.548584	57.966118
821.501648	102.276527
821.454712	64.764610
821.407837	88.610855
821.360901	85.188904
821.314026	57.919044
821.267029	74.941879
821.220154	91.959175
821.173157	74.917526
821.126221	115.762817
821.079285	102.127068
821.032349	74.881012
820.985413	98.690750
820.938477	88.466980
820.891541	88.452606
820.844604	68.029404
820.797668	91.824776
820.750671	71.407661
820.703735	108.793991
820.656738	105.377052
820.609802	84.967682
820.562866	105.342796
820.515930	74.747253
820.468933	50.955753
820.421997	108.687935
820.375000	84.898651
820.328003	105.257210
820.281006	61.107155
820.234009	84.857254
820.187073	81.449722
820.140076	108.581970
820.093140	122.134857
820.046082	122.115005
819.999146	67.830635
819.952148	105.120399
819.905090	77.979874
819.858093	77.967194
819.811096	108.458458
819.764099	77.941841
819.717163	132.140762
819.670105	81.304169
819.623108	105.000809
819.576111	91.437447
819.529114	74.492470
819.482117	77.865829
819.435059	88.007927
819.388062	67.687393
819.341064	101.514580
819.294006	77.815186
819.247009	67.654373
819.199951	94.700722
819.152954	104.830170
819.105896	94.669914
819.058838	118.318146
819.011841	125.058838
818.964783	84.485474
818.917725	91.229462
818.870667	91.214622
818.823669	104.710869
818.776611	104.693832
818.729553	151.950195
818.682434	111.412018
818.635376	118.145035
818.588379	135.000931
818.541321	134.978958
818.494263	121.461304
818.447144	118.068169
818.400146	134.913086
818.353027	134.891144
818.306030	97.780167
818.258911	134.847244
818.211853	128.084045
818.164795	117.952942
818.117676	107.825142
818.070618	134.759491
818.023499	114.526932
817.976440	127.979851
817.929321	117.856995
817.882202	114.471024
817.835144	144.748611
817.788025	97.605270
817.740967	100.954536
817.693848	137.948746
817.646729	178.294952
817.599670	144.630844
817.552551	137.881393
817.505432	141.221359
817.458374	131.112778
817.411255	157.981979
817.364075	120.987770
817.316956	171.371445
817.269897	141.106445
817.222717	107.492172
817.175598	157.853424
817.128479	151.111649
817.081360	117.512146
817.034180	130.920792
816.987061	147.681458
816.939941	107.387207
816.892822	147.633362
816.845642	134.190292
816.798523	110.688965
816.751404	167.683243
816.704224	137.477859
816.657104	100.577179
816.609985	124.024986
816.562744	97.192940
816.515625	180.950485
816.468506	120.614014
816.421265	174.191864
816.374146	157.417007
816.326965	157.391357
816.279785	187.499588
816.232605	153.992432
816.185486	174.050049
816.138306	143.902557
816.091125	184.031418
816.043945	150.546631
815.996765	153.867050
815.949585	140.464417
815.902405	160.504608
815.855164	170.508362
815.807983	147.081299
815.760803	133.688477
815.713623	113.616692
815.666443	140.327164
815.619263	130.282562
815.572083	140.281433
815.524841	153.616547
815.477661	193.658859
815.430420	136.874481
815.383240	180.244324
815.335999	103.456726
815.288757	153.491425
815.241577	146.793961
815.194336	160.112762
815.147156	163.421799
815.099915	153.391388
815.052673	170.036636
815.005432	186.676468
814.958252	186.646042
814.911011	163.288666
814.863770	156.598297
814.816528	163.235443
814.769287	156.547241
814.722046	159.851974
814.674866	143.177383
814.627563	123.179062
814.580322	143.130707
814.533081	143.107376
814.485840	133.101440
814.438599	153.041687
814.391296	159.669647
814.344055	192.902695
814.296753	156.292221
814.249573	189.514969
814.202209	202.781204
814.154968	159.539520
814.107727	182.775879
814.060486	156.164825
814.013184	189.360504
813.965881	172.721771
813.918640	195.940811
813.871338	175.985916
813.824097	205.836746
813.776794	179.247925
813.729431	165.943237
813.682190	185.826111
813.634949	139.346848
813.587585	179.131012
813.540283	182.418503
813.492981	195.653381
813.445740	198.937073
813.398376	149.178467
813.351074	169.041351
813.303833	175.641769
813.256531	192.180389
813.209167	162.332809
813.161865	155.681580
813.114502	215.269180
813.067261	195.366302
813.019958	188.712921
812.972595	251.576172
812.925232	234.986755
812.877930	208.475357
812.830566	267.996002
812.783325	201.791214
812.735962	205.065796
812.688599	208.339310
812.641296	204.998871
812.593933	175.212372
812.546631	178.489136
812.499207	208.203339
812.451904	208.169357
812.404541	171.794281
812.357239	208.101410
812.309875	181.646179
812.262512	211.335602
812.215149	168.380569
812.167786	191.460373
812.120361	201.330627
812.073059	201.297760
812.025635	174.869507
811.978333	151.748749
811.930969	191.304153
811.883545	191.272919
811.836182	141.782623
811.788818	161.539871
811.741394	214.252609
811.694031	187.852371
811.646667	174.641235
811.599304	220.736832
811.551880	207.524628
811.504456	210.784241
811.457092	214.042786
811.409668	187.668411
811.362305	187.637756
811.314941	171.150345
811.267517	190.867294
811.220154	197.416672
811.172729	190.804947
811.125305	151.303345
811.077881	190.742630
811.030457	203.863998
810.983032	203.830688
810.935608	230.093842
810.888184	230.056259
810.840820	223.446716
810.793396	177.413986
810.745911	210.234085
810.698486	200.346634
810.651062	200.313904
810.603638	223.264252
810.556213	183.834641
810.508728	252.731339
810.461365	200.183029
810.413879	223.118378
810.366394	219.801315
810.318970	216.485321
810.271545	196.772675
810.224060	226.251602
810.176636	183.594482
810.129211	213.065918
810.081726	219.585892
810.034302	219.550018
809.986816	212.961472
809.939331	265.339386
809.891907	216.167130
809.844421	225.955963
809.796936	209.548096
809.749451	252.071350
809.702026	242.210785
809.654480	229.080856
809.607056	265.035950
809.559570	238.820511
809.512085	242.052460
809.464600	189.685776
809.417114	261.592773
809.369568	258.280640
809.322144	235.356537
809.274597	245.122971
809.227173	284.296143
809.179626	231.973877
809.132141	271.136383
809.084656	235.164185
809.037109	280.844635
808.989563	257.942993
808.942078	238.313416
808.894592	241.538483
808.847107	254.552979
808.799561	274.089142
808.752014	228.370270
808.704529	241.380524
808.656982	287.000153
808.609497	273.909882
808.561951	244.522400
808.514404	244.482407
808.466858	270.516266
808.419373	247.661133
808.371826	270.427795
808.324280	296.444611
808.276733	270.339325
808.229187	309.373901
808.181641	289.787079
808.134094	309.272705
808.086548	279.927368
808.039001	260.354950
807.991455	266.820160
807.943909	244.002914
807.896301	335.042511
807.848755	250.427689
807.801208	273.149139
807.753662	253.596985
807.706055	260.056915
807.658508	269.764893
807.610901	269.720734
807.563416	298.918640
807.515747	269.632477
807.468201	298.820801
807.420654	308.514465
807.373108	324.698914
807.325439	334.385162
807.277832	314.854858
807.230347	334.275696
807.182739	356.935028
807.135132	317.944611
807.087463	366.549591
807.039917	324.327087
806.992310	366.429596
806.944702	366.369629
806.897156	330.651184
806.849548	330.597046
806.801880	301.377380
806.754272	298.087952
806.706665	317.476471
806.659058	301.229370
806.611450	310.895538
806.563843	317.320557
806.516235	323.743469
806.468567	401.376160
806.420959	336.582947
806.373291	365.650421
806.325684	352.649292
806.278076	368.765442
806.230469	339.596771
806.182800	358.943512
806.135132	355.651520
806.087524	387.919922
806.039856	349.070740
805.992249	410.414124
805.944580	326.338867
805.896973	381.204742
805.849243	323.001953
805.801636	364.932404
805.753967	413.307037
805.706299	351.899109
805.658691	358.297272
805.611023	409.876556
805.563354	322.684570
805.515625	367.800140
805.468018	387.094604
805.420349	361.229126
805.372681	386.967773
805.324951	351.438141
805.277283	383.617310
805.229614	370.661865
805.181885	406.049927
805.134216	389.872925
805.086548	425.246216
805.038879	421.955475
804.991211	476.634949
804.943481	444.357025
804.895752	424.967499
804.848083	434.554626
804.800354	482.759338
804.752686	456.937256
804.705017	447.210327
804.657288	482.521973
804.609619	501.740601
804.561890	488.795319
804.514160	414.764862
804.466431	466.132141
804.418701	414.628876
804.371033	411.347229
804.323303	427.345428
804.275513	446.550934
804.227844	398.296661
804.180115	407.865997
804.132385	404.588104
804.084595	459.100098
804.036865	452.604889
803.989197	404.389099
803.941467	484.545563
803.893738	462.007385
803.845947	516.465210
803.798218	497.136536
803.750488	474.607361
803.702759	493.767181
803.654968	484.068939
803.607178	509.631378
803.559448	519.161865
803.511719	458.197357
803.463928	464.529510
803.416199	506.093933
803.368408	499.605713
803.320679	457.896790
803.272888	502.643372
803.225159	473.751678
803.177307	476.874451
803.129578	540.795715
803.081787	499.114136
803.033997	531.021484
802.986206	489.355164
802.938416	559.628113
802.890686	553.141602
802.842896	537.066711
802.795105	546.567444
802.747253	572.043945
802.699524	559.169067
802.651672	562.272034
802.603882	606.898621
802.556091	530.150696
802.508301	609.892578
802.460510	606.599854
802.412720	558.618652
802.364929	673.423950
802.317078	619.065430
802.269226	618.963806
802.221436	644.382263
802.173645	634.708069
802.125793	580.391479
802.078003	679.137817
802.030151	653.523010
801.982361	701.226624
801.934509	755.288269
801.886719	713.741760
801.838867	710.438721
801.791016	691.210266
801.743164	812.118347
801.695312	780.142456
801.647522	843.688965
801.599609	834.000793
801.551819	830.681152
801.503967	906.916626
801.456055	903.586060
801.408203	932.067749
801.360352	893.747498
801.312500	852.259766
801.264709	893.453918
801.216797	912.381348
801.168945	899.517456
801.121094	988.353271
801.073181	883.334656
801.025391	870.481750
800.977478	946.572815
800.929565	921.010132
800.881714	898.631226
800.833862	996.904053
800.785950	1041.180908
800.738037	1120.355103
800.690247	1088.438110
800.642334	1059.704346
800.594421	1126.147339
800.546570	1097.416870
800.498596	1173.345337
800.450745	1109.738892
800.402832	1163.449341
800.354980	1232.990234
800.307068	1220.111084
800.259155	1213.573364
800.211243	1273.567383
800.163330	1187.833984
800.115417	1209.807983
800.067505	1168.444458
800.019653	1225.240356
799.971680	1088.923462
799.923767	1107.734253
799.875854	1132.867554
799.827942	1085.222656
799.779968	1113.514771
799.732117	1201.892212
799.684143	1128.960449
799.636230	1144.583984
799.588257	1131.750610
799.540344	1172.654785
799.492371	1096.615356
799.444458	1222.825317
799.396545	1172.076416
799.348572	1187.677246
799.300598	1215.905762
799.252686	1108.344727
799.204712	1089.219482
799.156738	1079.570435
799.108826	1120.422485
799.060852	1120.238159
799.012878	1148.449707
798.964966	1119.869751
798.916992	1110.223389
798.869019	1081.659058
798.821045	996.349976
798.773071	1068.693237
798.725098	983.414307
798.677124	1055.735840
798.629150	1068.165894
798.581116	1036.486084
798.533203	960.718079
798.485168	995.203125
798.437256	979.295105
798.389221	1020.062378
798.341248	982.120667
798.293274	878.098022
798.245300	1035.292847
798.197266	921.856812
798.149292	909.122131
798.101257	858.648743
798.053223	911.967651
798.005310	855.221985
797.957275	817.357056
797.909241	782.647705
797.861206	741.664490
797.813232	725.831787
797.765198	694.296204
797.717224	675.335327
797.669189	659.521301
797.621155	646.852478
797.573120	596.513306
797.525146	649.778564
797.477112	640.256042
797.429016	687.220520
797.381042	574.158203
797.333008	608.570251
797.284912	639.834473
797.236877	611.505798
797.188843	639.623779
797.140808	567.415894
797.092773	614.338135
797.044800	523.354980
796.996704	573.402344
796.948608	529.448242
796.900635	545.022644
796.852539	504.219513
796.804504	507.267731
796.756409	453.961151
796.708374	485.188904
796.660339	475.719757
796.612244	478.770630
796.564209	459.919525
796.516113	447.331024
796.468018	409.725250
796.419983	462.819427
796.371887	447.109985
796.323792	428.279541
796.275757	381.324799
796.227600	462.514526
796.179504	399.946655
796.131470	431.121429
796.083374	431.050385
796.035278	430.979370
795.987183	390.315521
795.939087	433.959351
795.891052	408.915863
795.842896	402.606506
795.794800	446.226685
795.746643	371.274292
795.698547	368.093658
795.650452	417.935791
795.602356	389.801208
795.554260	392.854858
795.506165	333.559845
795.458069	367.790405
795.409912	367.729767
795.361816	411.290924
795.313660	358.262573
795.265564	358.203491
795.217407	355.030151
795.169312	358.085388
795.121216	342.459991
795.073059	376.643890
795.024902	373.469543
794.976746	348.514099
794.928589	332.900513
794.880493	329.734924
794.832336	351.451904
794.784180	314.077759
794.736023	317.135132
794.687866	338.843414
794.639709	313.922394
794.591553	332.516418
794.543396	329.354462
794.495239	354.152954
794.447144	279.548340
794.398926	298.135681
794.350830	288.771301
794.302612	316.664673
794.254456	282.467957
794.206238	279.317841
794.158081	282.374756
794.109924	254.405609
794.061707	288.485596
794.013550	276.032043
793.965393	263.582611
793.917236	257.338226
793.869019	247.995911
793.820862	278.949341
793.772583	269.606537
793.724426	219.987427
793.676270	247.832245
793.628052	226.109604
793.579895	204.394119
793.531677	229.131348
793.483459	222.901810
793.435242	253.818497
793.387085	213.543716
793.338806	222.791458
793.290649	194.910339
793.242371	216.531296
793.194214	247.423492
793.145996	197.906113
793.097778	265.892426
793.049561	207.114563
793.001343	231.806381
792.953064	231.768112
792.904846	234.819565
792.856628	216.245468
792.808411	225.475891
792.760193	250.144272
792.711914	253.190659
792.663696	293.282196
792.615417	290.147095
792.567200	256.151398
792.518982	268.451691
792.470703	243.726227
792.422485	311.547882
792.374207	271.402832
792.325928	249.772705
792.277710	246.648346
792.229492	246.607605
792.181152	252.731049
792.132935	292.749786
792.084656	305.025696
792.036377	271.089172
791.988098	274.124420
791.939819	311.033630
791.891602	298.666107
791.843323	292.459717
791.795044	329.347565
791.746765	347.758179
791.698486	295.391754
791.650208	326.107849
791.601929	310.674042
791.553650	353.679321
791.505371	338.246063
791.457031	301.296692
791.408752	313.542664
791.360474	316.564301
791.312195	282.709717
791.263916	291.880280
791.215576	294.903931
791.167297	294.855194
791.118958	297.877350
791.070679	353.095184
791.022339	270.149902
790.974060	316.145905
790.925720	291.542694
790.877441	266.947571
790.829102	260.767731
790.780823	300.600159
790.732422	306.684113
790.684143	279.036407
790.635803	266.726959
790.587524	245.225616
790.539185	226.796173
790.490845	205.308533
790.442505	229.784973
790.394104	238.936844
790.345825	232.771759
790.297424	266.418335
790.249146	278.621368
790.200745	235.717545
790.152405	186.706390
790.104065	214.217789
790.055725	220.301849
790.007385	235.561615
789.958984	256.933807
789.910706	278.298889
789.862305	305.772369
789.813904	220.119690
789.765564	256.763824
789.717224	278.114777
789.668823	216.954742
789.620483	216.918839
789.572083	253.539215
789.523682	222.955429
789.475342	232.079575
789.427002	207.615768
789.378601	225.897430
789.330200	231.964355
789.281799	225.822662
789.233459	213.580673
789.185059	259.305023
789.136658	204.359543
789.088257	268.368103
789.039856	265.274567
788.991455	246.938873
788.943115	280.427338
788.894714	262.095215
788.846252	298.617188
788.797913	295.521149
788.749451	231.504013
788.701050	237.556885
788.652649	240.562637
788.604248	274.013336
788.555847	295.276581
788.507385	280.009766
788.458984	267.791077
788.410522	267.746735
788.362122	267.702393
788.313660	234.200790
788.265259	234.162003
788.216858	228.042099
788.168396	237.124496
788.119995	218.847900
788.071533	197.538300
788.023071	218.775406
787.974670	188.358719
787.926208	157.952118
787.877747	185.259293
787.829346	148.790176
787.780884	121.441254
787.732422	194.273804
787.684021	109.260910
787.635559	133.518982
787.587097	112.258728
787.538635	121.340675
787.490173	124.353584
787.441711	127.365486
787.393250	154.632462
787.344788	109.134239
787.296326	124.271172
787.247803	112.128571
787.199341	96.959991
787.150879	127.238892
787.102417	109.043831
787.053894	78.740822
787.005432	66.615807
786.956909	69.632256
786.908508	93.836609
786.859985	75.662140
786.811523	60.519680
786.763000	72.611572
786.714478	54.449654
786.666016	60.489582
786.617493	51.407619
786.569031	78.610382
786.520508	81.620323
786.471985	69.516891
786.423523	51.373531
786.375000	60.429428
786.326477	72.503288
786.277954	45.307037
786.229431	54.359428
786.180908	75.486687
786.132446	51.322433
786.083923	60.369320
786.035339	45.269478
785.986816	45.261971
785.938354	75.424103
785.889771	33.181099
785.841248	66.351189
785.792725	69.355644
785.744202	45.224438
785.695679	33.159088
785.647095	63.293209
785.598572	48.215397
785.550049	36.155548
785.501465	60.249245
785.452942	39.155510
785.404358	66.252174
785.355835	48.175407
785.307251	48.167412
785.258728	54.179344
785.210205	45.141960
785.161621	48.143433
785.113037	42.118511
785.064453	54.143383
785.015930	66.164261
784.967346	69.160248
784.918762	57.122894
784.870239	24.047752
784.821594	57.103931
784.773071	63.104393
784.724487	48.071556
784.675903	54.071522
784.627319	60.069492
784.578735	51.050591
784.530151	39.032207
784.481567	48.031662
784.432983	102.050331
784.384399	57.018658
784.335754	42.006771
784.287170	71.999649
784.238586	53.990768
784.190002	35.987865
784.141357	71.963783
784.092773	77.947815
784.044128	77.934868
783.995605	53.945946
783.946960	38.954491
783.898376	68.908035
783.849670	53.919067
783.801086	53.910110
783.752502	26.950577
783.703857	44.910164
783.655212	26.941622
783.606628	32.923180
783.558044	77.805489
783.509338	41.888302
783.460693	29.915245
783.412109	44.865410
783.363464	20.933712
783.314819	44.850502
783.266174	50.822121
783.217529	56.791752
783.168884	59.770859
783.120300	0.000000
783.071594	62.738541
783.022949	38.831688
782.974304	23.892452
782.925659	56.735142
782.877014	41.797890
782.828369	50.746143
782.779663	50.737709
782.731018	53.713348
782.682373	41.770103
782.633667	35.796993
782.585022	35.791042
782.536377	62.623905
782.487671	35.779140
782.439026	44.716488
782.390320	20.864223
782.341614	32.781185
782.292969	44.694183
782.244263	41.707634
782.195557	26.807590
782.146912	50.628139
782.098206	53.597347
782.049500	35.725624
782.000854	71.439362
781.952087	68.451332
781.903442	59.512997
781.854736	65.453407
781.806030	50.569218
781.757324	53.534969
781.708618	68.394417
781.659912	80.275734
781.611206	59.453613
781.562500	77.276840
781.513794	65.377213
781.465027	32.683167
781.416382	38.619133
781.367615	68.314789
781.318909	71.273140
781.270203	53.445957
781.221436	59.374512
781.172791	17.809389
781.124023	11.870950
781.075256	50.443142
781.026550	50.434746
780.977844	35.595070
780.929077	59.315243
780.880310	17.791611
780.831604	53.365944
780.782837	20.749968
780.734131	23.710300
780.685364	26.669647
780.636597	23.702406
780.587891	29.623075
780.539062	50.350842
780.490356	8.883964
780.441589	35.529934
780.392822	50.325695
780.344055	32.558262
780.295288	35.512188
780.246521	26.629705
780.197815	41.417088
780.148987	20.705095
780.100281	20.701645
780.051453	32.525738
780.002686	44.345894
779.953918	38.426704
779.905151	41.375713
779.856384	50.233566
779.807556	29.544233
779.758789	17.723587
779.710022	23.627512
779.661194	32.482414
779.612427	35.429459
779.563599	50.183369
779.514832	20.660297
779.466003	50.166649
779.417236	41.306824
779.368408	38.349945
779.319580	32.444546
779.270813	32.439140
779.221985	23.588169
779.173218	38.324387
779.124390	35.370461
779.075562	55.993893
779.026733	53.038006
778.977966	58.921291
778.929138	47.129177
778.880310	47.121319
778.831482	58.891830
778.782593	100.099419
778.733826	70.646629
778.684937	108.895401
778.636108	97.106728
778.587341	73.553436
778.538513	52.949646
778.489624	26.470407
778.440796	35.287991
778.391968	20.581228
778.343079	26.457167
778.294250	20.574364
778.245422	49.957981
778.196594	23.505716
778.147705	5.875449
778.098816	46.995750
778.049988	41.114422
778.001099	14.681273
777.952271	11.743059
777.903381	23.482201
777.854553	17.608713
777.805664	5.868591
777.756836	2.933806
777.707886	26.399851
777.659058	20.529791
777.610168	38.120392
777.561279	35.182182
777.512451	23.450874
777.463562	0.000000
777.414673	11.721524
777.365784	8.789676
777.316895	23.435225
777.268005	29.289141
777.219116	14.642126
777.170227	32.207302
777.121277	32.201923
777.072388	8.780877
777.023560	26.338234
776.974670	8.777946
776.925720	26.329441
776.876831	43.875076
776.827881	8.773550
776.778992	0.000000
776.730103	5.847080
776.681152	23.384417
776.632263	17.535383
776.583313	11.688304
776.534424	37.980644
776.485535	29.211000
776.436584	5.841225
776.387695	26.281120
776.338684	8.758910
776.289795	2.919149
776.240906	5.837323
776.191956	20.427217
776.143005	29.176867
776.094055	17.503195
776.045105	20.416983
775.996216	11.664899
775.947266	2.915737
775.898315	26.237253
775.849365	29.147633
775.800415	32.057037
775.751465	14.568947
775.702515	11.653210
775.653564	8.738447
775.604553	11.649316
775.555664	11.647368
775.506653	17.468134
775.457703	8.732607
775.408752	11.641530
775.359802	17.459377
775.310852	40.731735
775.261841	17.453541
775.212891	0.000000
775.163879	0.000000
775.114929	26.167185
775.065918	11.627915
775.016968	20.345449
774.968018	8.718020
774.918945	29.055210
774.869995	2.905035
774.820984	11.618198
774.772034	11.616256
774.723022	14.517892
774.674011	34.837112
774.625061	31.928680
774.576050	23.216974
774.527039	23.213093
774.478027	5.802302
774.429016	11.602664
774.380005	29.001808
774.330994	2.899696
774.281982	5.798421
774.232971	23.189806
774.183960	28.982409
774.134949	14.488780
774.085876	5.794542
774.036926	28.967865
773.987915	17.377811
773.938904	46.333076
773.889832	28.953327
773.840820	14.474241
773.791809	31.838003
773.742737	17.363277
773.693665	11.573582
773.644653	17.357466
773.595581	34.709126
773.546570	23.135544
773.497559	28.914589
773.448486	8.672925
773.399475	17.342947
773.350403	20.230051
773.301331	-2.889524
773.252319	34.668476
773.203247	14.442780
773.154236	14.440363
773.105103	20.213123
773.056030	8.661317
773.007019	31.752844
772.957947	31.747528
772.908875	5.771311
772.859802	31.736897
772.810730	14.423447
772.761658	23.073650
772.712585	8.651170
772.663513	28.832403
772.614441	17.296545
772.565369	2.882275
772.516296	5.763584
772.467163	20.169163
772.418091	28.808264
772.368958	14.401719
772.319946	14.399307
772.270813	8.638137
772.221741	20.152277
772.172668	2.878414
772.123535	17.267591
772.074402	37.406849
772.025330	2.876968
771.976257	14.382428
771.927124	8.628011
771.877991	8.626565
771.828918	17.250238
771.779785	5.749116
771.730652	31.614840
771.681580	5.747189
771.632446	11.492452
771.583313	20.108419
771.534180	2.872150
771.485046	22.973349
771.435974	14.355935
771.386780	8.612118
771.337708	22.961796
771.288513	5.739487
771.239380	8.607787
771.190247	-5.737562
771.141113	22.946402
771.091980	20.074736
771.042908	17.204031
770.993713	22.934860
770.944519	5.732754
770.895447	17.195377
770.846313	8.596247
770.797119	-2.864935
770.747925	11.457818
770.698792	5.727948
770.649658	31.498430
770.600525	17.178080
770.551331	17.175200
770.502197	11.448212
770.453003	45.785164
770.403870	34.333115
770.354675	14.303063
770.305481	2.860133
770.256287	8.578959
770.207153	8.577519
770.157959	0.000000
770.108765	20.007496
770.059631	34.292809
770.010437	-2.857255
769.961243	0.000000
769.912048	8.568887
769.862854	19.990713
769.813660	-2.855337
769.764465	25.693720
769.715271	22.835028
769.666077	0.000000
769.616882	8.560261
769.567688	19.970589
769.518494	14.262312
769.469238	8.555950
769.420044	14.257524
769.370850	8.553078
769.321594	19.953831
769.272461	37.050892
769.223206	22.796721
769.173950	19.943781
769.124817	17.091799
769.075562	34.177856
769.026306	8.543030
768.977112	14.235991
768.927856	34.160641
768.878662	19.923693
768.829407	-8.537292
768.780212	14.226429
768.730957	25.603271
768.681763	-2.844330
768.632446	17.063114
768.583252	8.530124
768.533997	19.900278
768.484741	14.212096
768.435486	17.051649
768.386230	28.414640
768.337036	8.522960
768.287781	22.724073
768.238525	36.920414
768.189209	0.000000
768.140015	19.873543
768.090759	39.740406
768.041443	31.219357
767.992188	17.025877
767.942932	14.185847
767.893677	31.203617
767.844421	22.689726
767.795105	17.014433
767.745850	25.517361
767.696594	11.339142
767.647278	14.171545
767.598022	-2.833833
767.548767	8.500068
767.499451	-2.832880
767.450134	-2.832403
767.400879	11.327708
767.351562	11.325804
767.302307	0.000000
767.252991	0.000000
767.203735	16.980135
767.154419	2.829547
767.105103	16.974424
767.055786	16.971569
767.006470	22.624952
766.957214	39.587009
766.907837	16.963007
766.858582	5.653384
766.809265	0.000000
766.759949	31.083153
766.710632	16.951595
766.661316	11.299162
766.612000	5.648631
766.562683	11.295360
766.513367	31.057013
766.464050	16.937338
766.414673	8.467244
766.365356	16.931639
766.316040	5.642930
766.266724	22.567921
766.217346	16.923092
766.168030	14.100203
766.118713	25.376093
766.069336	-2.819091
766.020020	19.730316
765.970703	11.272569
765.921326	8.453003
765.871948	16.903160
765.822632	50.700943
765.773254	8.448734
765.723938	11.263083
765.674561	8.445889
765.625244	11.259291
765.575867	19.700439
765.526489	14.069373
765.477112	11.253603
765.427795	22.503416
765.378418	22.499626
765.329041	11.247918
765.279663	11.246024
765.230286	30.921356
765.180908	16.863354
765.131531	25.290770
765.082153	11.238448
765.032715	16.854834
764.983337	-2.808666
764.934021	5.616385
764.884644	16.846315
764.835205	25.265215
764.785828	11.227093
764.736450	19.644102
764.687073	22.446619
764.637634	5.610709
764.588257	30.853699
764.538818	14.022045
764.489441	14.019682
764.440063	16.820784
764.390625	22.423931
764.341187	8.407557
764.291809	25.218418
764.242432	22.412594
764.192932	22.408815
764.143555	11.202518
764.094116	2.800158
764.044739	25.197168
763.995300	11.196854
763.945862	5.597483
763.896484	11.193078
763.847046	27.977978
763.797607	25.175934
763.748169	22.374834
763.698730	19.574678
763.649292	-2.795911
763.599854	27.954393
763.550415	5.589936
763.500977	16.766979
763.451538	19.558176
763.402100	33.522648
763.352661	25.137743
763.303162	30.718725
763.253723	13.960702
763.204285	27.916693
763.154846	8.373595
763.105408	11.162910
763.055908	13.951283
763.006470	16.738714
762.957031	0.000000
762.907532	11.155377
762.858032	5.576747
762.808594	16.727419
762.759094	13.937162
762.709656	16.721773
762.660156	8.359475
762.610718	5.572043
762.561218	16.713306
762.511780	30.635891
762.462280	22.276886
762.412781	33.409687
762.363342	16.702024
762.313843	25.048807
762.264343	33.392769
762.214783	30.604872
762.165344	27.817913
762.115845	16.687929
762.066345	27.808519
762.016846	2.780382
761.967346	41.698692
761.917847	22.235546
761.868286	11.115895
761.818848	30.563549
761.769287	25.002317
761.719788	-2.777566
761.670288	11.108387
761.620789	19.436394
761.571228	33.313904
761.521729	-5.551379
761.472229	5.550441
761.422668	5.549504
761.373169	22.194265
761.323608	33.285770
761.274109	22.186766
761.224609	11.091508
761.175049	8.317225
761.125488	5.543880
761.075989	36.029129
761.026489	-2.771003
760.976929	13.852674
760.927307	38.780930
760.877808	19.387188
760.828308	2.769130
760.778687	11.074648
760.729187	8.304583
760.679626	16.606358
760.630066	22.138065
760.580566	8.300371
760.530945	11.065290
760.481384	8.297565
760.431824	16.592323
760.382263	24.884277
760.332703	24.880068
760.283142	11.055939
760.233521	2.763517
760.184021	30.393547
760.134460	16.575495
760.084839	2.762115
760.035278	19.331537
759.985657	24.850628
759.936096	19.324997
759.886536	11.040988
759.836975	16.558680
759.787354	24.833818
759.737732	0.000000
759.688232	24.825417
759.638611	2.757913
759.588989	38.604248
759.539368	16.541878
759.489807	8.269539
759.440186	11.024187
759.390564	16.533482
759.341003	16.530684
759.291443	38.565067
759.241760	16.525089
759.192200	13.768577
759.142578	0.000000
759.092957	0.000000
759.043335	19.266220
758.993713	5.503703
758.944092	11.005542
758.894470	41.263794
758.844849	13.752270
758.795227	5.499976
758.745667	2.749522
758.695984	16.494343
758.646362	16.491549
758.596741	27.481260
758.547058	19.233625
758.497437	38.460735
758.447815	2.746730
758.398193	27.462648
758.348511	5.491600
758.298889	5.490669
758.249268	13.724348
758.199646	30.188452
758.149963	27.439398
758.100281	19.204325
758.050659	24.687092
758.000977	19.197819
757.951355	16.452484
757.901672	21.932930
757.851990	30.152668
757.802368	13.703436
757.752686	24.662004
757.703003	13.698792
757.653320	35.610825
757.603699	13.694149
757.554016	-8.215097
757.504333	13.689507
757.454651	30.111813
757.404968	10.947894
757.355286	24.628586
757.305603	2.736046
757.255920	2.735582
757.206238	5.470236
757.156616	5.469309
757.106873	5.468381
757.057190	35.538452
757.007446	13.666318
756.957764	32.793602
756.908081	13.661684
756.858398	5.463747
756.808716	10.925640
756.758972	43.695152
756.709290	40.957256
756.659607	21.840164
756.609924	10.918230
756.560120	2.729095
756.510437	13.643158
756.460693	38.194363
756.411072	8.183118
756.361328	21.817945
756.311584	32.721367
756.261902	35.442131
756.212097	19.080988
756.162415	16.352356
756.112671	2.724930
756.062927	19.071276
756.013184	21.792046
755.963501	19.064804
755.913757	13.615406
755.864014	29.948809
755.814270	8.166471
755.764587	-8.165085
755.714844	2.721233
755.665100	2.720771
755.615356	8.160927
755.565552	21.758778
755.515808	40.790783
755.466064	8.156772
755.416321	10.873849
755.366577	16.308004
755.316833	24.457851
755.267029	16.302465
755.217285	21.732931
755.167542	13.580774
755.117737	0.000000
755.067993	24.437092
755.018188	13.573856
754.968445	8.142931
754.918701	2.713849
754.868896	16.280329
754.819092	21.703419
754.769348	18.987265
754.719543	16.272034
754.669739	2.711545
754.619995	32.533012
754.570190	13.553118
754.520386	21.681305
754.470642	16.258215
754.420837	-8.127727
754.371033	21.670254
754.321228	16.249928
754.271484	18.955029
754.221619	10.829603
754.171875	10.827763
754.122070	5.412961
754.072205	32.472248
754.022400	10.822243
753.972595	8.115302
753.922852	40.569614
753.872986	0.000000
753.823181	24.333492
753.773376	10.813046
753.723572	21.622417
753.673706	10.809370
753.623901	21.615065
753.574097	10.805695
753.524292	24.308678
753.474426	16.203030
753.424561	32.400547
753.374756	32.395035
753.324951	5.398254
753.275085	26.986681
753.225281	16.189255
753.175415	13.488750
753.125610	13.486456
753.075745	10.787330
753.025879	24.267363
752.976074	16.175489
752.926208	-5.390913
752.876343	8.084992
752.826477	21.556313
752.776672	24.246725
752.726807	29.629843
752.676941	32.317963
752.627075	0.000000
752.577209	-2.692247
752.527344	8.075367
752.477539	32.295967
752.427673	26.908726
752.377808	8.071243
752.327881	8.069870
752.278015	10.757995
752.228149	18.823286
752.178284	18.820082
752.128357	13.440626
752.078491	45.690350
752.028625	18.810471
751.978760	29.554277
751.928833	10.745180
751.878967	18.800861
751.829102	-5.370760
751.779175	5.369845
751.729309	26.844654
751.679382	0.000000
751.629456	10.734204
751.579590	8.049282
751.529663	18.778460
751.479797	16.093081
751.429871	16.090338
751.379944	13.406331
751.330078	13.404047
751.280212	24.123175
751.230225	13.399480
751.180298	18.756075
751.130371	16.073896
751.080505	5.357052
751.030579	5.356140
750.980652	45.519428
750.930725	13.385785
750.880859	18.736906
750.830872	16.057467
750.780945	21.406307
750.731018	13.376661
750.681091	16.049257
750.631165	8.023261
750.581177	10.695857
750.531311	10.694034
750.481384	32.076633
750.431396	13.362985
750.381409	-5.344283
750.331482	2.671685
750.281616	18.698610
750.231628	21.366196
750.181641	18.692232
750.131714	21.358910
750.081787	42.710533
750.031799	13.344765
749.981812	13.342488
749.931885	16.008255
749.881958	10.670350
749.831970	8.001397
749.781982	10.666710
749.732056	26.662224
749.682068	18.660374
749.632080	45.310318
749.582092	10.659431
749.532104	0.000000
749.482178	10.655794
749.432190	29.298433
749.382202	29.293434
749.332214	39.938774
749.282227	-2.662131
749.232239	13.308381
749.182251	7.983665
749.132263	15.964606
749.082275	10.641253
749.032288	58.516907
748.982239	10.637621
748.932312	29.248465
748.882263	15.950984
748.832275	5.316087
748.782288	18.603127
748.732239	-5.314271
748.682251	7.970046
748.632263	10.624913
748.582214	31.869297
748.532227	10.621284
748.482178	10.619471
748.432190	45.125042
748.382141	23.885649
748.332153	7.960523
748.282104	10.612217
748.232117	5.305202
748.182068	2.652148
748.132080	23.865253
748.082031	26.512419
748.031982	-23.857100
747.981934	26.503361
747.931885	2.649883
747.881836	18.546013
747.831848	10.595910
747.781799	18.539675
747.731812	21.184578
747.681702	7.942859
747.631653	34.413174
747.581604	13.233574
747.531555	18.523836
747.481567	15.874860
747.431458	21.162861
747.381409	18.514339
747.331360	7.933360
747.281311	15.864007
747.231201	13.217746
747.181152	-2.643097
747.131104	10.570581
747.081055	13.210967
747.030945	13.208708
746.980957	31.695477
746.930847	18.485867
746.880798	7.921159
746.830688	15.839609
746.780640	23.755350
746.730530	13.195159
746.680420	21.108643
746.630310	21.105032
746.580261	36.927490
746.530212	-5.274453
746.480103	18.457428
746.429993	36.908539
746.379883	28.994604
746.329834	18.447954
746.279724	10.539885
746.229614	10.538081
746.179504	13.170347
746.129456	15.801712
746.079346	31.598015
746.029236	21.061737
745.979126	15.793600
745.929016	15.790896
745.878906	15.788194
745.828796	18.416407
745.778687	21.043718
745.728577	21.040115
745.678406	18.406948
745.628296	28.920254
745.578186	10.514655
745.528076	-2.628214
745.477966	23.649872
745.427795	26.273136
745.377686	23.641773
745.327576	23.637724
745.277405	15.755784
745.227295	15.753086
745.177124	2.625065
745.127014	36.744610
745.076904	2.624165
745.026733	47.226887
744.976562	13.116332
744.926453	13.114085
744.876282	7.867103
744.826111	13.109591
744.775940	13.107346
744.725830	20.968159
744.675659	10.482283
744.625488	15.720730
744.575378	7.859018
744.525208	15.715343
744.475037	15.712648
744.424866	28.801586
744.374695	28.796650
744.324524	15.704571
744.274353	5.233960
744.224182	10.466125
744.174011	28.776909
744.123840	31.387609
744.073669	13.075929
744.023499	5.229475
743.973267	23.528601
743.923157	26.138407
743.872925	23.520533
743.822754	23.516499
743.772583	18.287474
743.722351	0.000000
743.672180	23.504402
743.622009	10.444609
743.571777	26.107044
743.521606	15.661539
743.471375	20.878471
743.421204	23.484249
743.370972	-7.826740
743.320801	15.650795
743.270569	15.648110
743.220398	7.822712
743.170166	23.464111
743.119995	7.820028
743.069702	10.424915
743.019531	10.423126
742.969299	2.605334
742.919067	31.258646
742.868835	0.000000
742.818604	18.227951
742.768433	23.431915
742.718201	13.015496
742.667969	13.013262
742.617737	31.226467
742.567505	10.407036
742.517273	10.405249
742.467041	10.403462
742.416809	28.604609
742.366577	10.399890
742.316345	7.798578
742.266052	25.990797
742.215820	18.190434
742.165588	25.981871
742.115356	23.379667
742.065063	18.181063
742.014832	23.371637
741.964600	20.771219
741.914307	12.979782
741.864075	20.764084
741.813782	28.545712
741.763489	18.162331
741.713257	-5.188346
741.662964	2.593727
741.612732	10.373127
741.562439	10.371345
741.512207	7.777172
741.461914	12.959725
741.411682	31.097994
741.361389	10.364217
741.311096	31.087307
741.260803	18.131145
741.210510	23.307465
741.160278	33.660553
741.109985	15.532969
741.059692	25.883831
741.009399	10.351752
740.959106	12.937466
740.908813	7.761145
740.858521	18.106224
740.808228	31.033905
740.757935	18.099998
740.707642	23.267424
740.657349	-2.584825
740.606995	12.921902
740.556702	15.503614
740.506409	-7.750474
740.456116	10.332188
740.405762	10.330411
740.355469	20.657267
740.305176	23.235428
740.254822	23.231430
740.204529	15.484956
740.154175	5.160764
740.103882	15.479629
740.053589	12.897470
740.003235	23.211452
739.952942	15.471639
739.902588	23.203465
739.852295	7.733157
739.801941	20.618202
739.751587	15.460991
739.701233	28.340271
739.650879	33.487282
739.600586	25.755014
739.550232	10.300232
739.499878	12.873074
739.449524	18.019201
739.399170	10.294913
739.348816	28.306137
739.298523	12.864211
739.248108	20.579193
739.197815	7.715868
739.147461	18.000593
739.097046	2.571070
739.046692	7.711883
738.996399	15.421109
738.945984	12.848711
738.895630	28.262295
738.845276	38.532856
738.794861	23.115730
738.744507	5.135944
738.694153	20.540237
738.643738	20.536699
738.593384	33.366386
738.543030	7.698608
738.492615	20.526085
738.442261	15.391911
738.391846	15.389258
738.341492	20.515476
738.291077	20.511940
738.240662	28.199057
738.190369	20.504869
738.139954	30.752003
738.089539	7.686676
738.039124	33.303185
737.988770	23.052078
737.938354	20.487204
737.887939	17.923212
737.837524	7.680052
737.787109	15.357456
737.736755	5.118269
737.686340	17.910854
737.635925	10.233008
737.585510	2.557811
737.535095	33.245808
737.484680	30.683146
737.434265	7.669464
737.383850	20.448376
737.333374	25.556061
737.282959	-10.220661
737.232544	5.109449
737.182129	17.879986
737.131714	30.646116
737.081299	15.320415
737.030823	25.529619
736.980408	-5.105042
736.929993	28.072889
736.879517	12.758203
736.829102	7.653601
736.778625	10.203039
736.728210	7.650959
736.677795	17.849157
736.627319	17.846075
736.576904	15.293996
736.526428	20.388475
736.475952	20.384954
736.425537	28.024475
736.375061	30.566875
736.324585	20.374399
736.274170	10.185441
736.223694	10.183682
736.173218	12.727405
736.122803	5.090083
736.072266	27.990620
736.021851	0.000000
735.971375	17.806061
735.920898	33.062687
735.870361	33.056976
735.819946	10.169621
735.769470	33.045559
735.718994	43.205956
735.668518	0.000000
735.618042	17.784542
735.567566	20.321680
735.517029	30.477253
735.466553	22.853989
735.416077	20.311148
735.365540	20.307638
735.315063	27.918177
735.264587	10.150310
735.214111	12.685694
735.163635	20.293602
735.113098	15.217571
735.062622	22.822411
735.012146	15.212311
734.961609	27.884415
734.911133	20.276070
734.860596	25.340704
734.810059	22.802691
734.759521	15.199165
734.709045	22.794807
734.658508	20.258547
734.608032	7.595641
734.557495	7.594328
734.506958	7.593015
734.456421	17.713970
734.405884	15.180777
734.355408	15.178151
734.304871	17.704781
734.254333	10.115267
734.203796	5.056758
734.153259	27.807362
734.102722	22.747541
734.052185	27.797739
734.001648	20.213039
733.951111	20.209543
733.900574	12.628778
733.850037	20.202549
733.799500	15.149290
733.748962	15.146668
733.698364	15.144047
733.647827	15.141426
733.597229	30.277611
733.546692	17.658882
733.496155	50.445213
733.445618	7.565472
733.395020	15.128325
733.344482	5.041902
733.293884	25.205145
733.243347	12.600390
733.192810	20.157135
733.142212	35.268879
733.091614	25.187693
733.041077	30.219997
732.990479	30.214764
732.939880	12.587304
732.889343	7.551075
732.838745	12.582945
732.788147	22.645376
732.737610	30.188606
732.687012	25.152813
732.636414	25.148457
732.585815	32.687328
732.535217	25.139742
732.484680	37.703079
732.434021	52.775166
732.383423	12.563338
732.332825	10.048929
732.282227	15.070782
732.231628	17.579531
732.181030	27.620190
732.130432	15.062947
732.079834	2.510056
732.029175	25.096209
731.978577	12.545930
731.927979	10.035004
731.877380	20.066528
731.826782	27.586693
731.776184	15.044678
731.725525	15.042069
731.674866	37.598652
731.624268	17.542995
731.573608	25.057076
731.523071	42.589642
731.472412	27.553225
731.421753	17.530828
731.371155	20.031757
731.320496	37.553032
731.269897	27.534113
731.219238	12.513335
731.168579	30.026794
731.117981	42.530579
731.067322	27.515011
731.016663	20.007446
730.966003	10.001987
730.915344	35.000881
730.864685	17.497404
730.814087	2.499195
730.763428	27.486378
730.712769	7.494984
730.662109	29.974731
730.611450	27.472067
730.560791	27.467299
730.510132	27.462532
730.459473	17.473122
730.408813	17.470089
730.358154	12.476469
730.307434	2.494860
730.256775	52.382973
730.206116	19.951954
730.155457	7.480683
730.104797	34.903793
730.054077	34.897732
730.003418	14.953573
729.952698	22.426464
729.902039	32.388157
729.851379	12.454820
729.800659	22.414782
729.750000	39.841576
729.699280	12.448330
729.648621	24.892334
729.597900	27.376812
729.547241	-4.976737
729.496521	22.391426
729.445862	12.437520
729.395142	24.870716
729.344421	44.759510
729.293701	42.265526
729.242981	24.857752
729.192322	29.824120
729.141541	34.788757
729.090820	19.875835
729.040161	22.356428
728.989441	27.319773
728.938721	29.798206
728.888062	39.724033
728.837280	22.340885
728.786560	22.337000
728.735840	12.407287
728.685120	17.367182
728.634338	17.364161
728.583679	27.281794
728.532898	7.439195
728.482178	14.875803
728.431458	27.267563
728.380737	7.435314
728.330017	24.780069
728.279236	34.686062
728.228516	27.248594
728.177795	22.290426
728.127014	39.620529
728.076233	12.379261
728.025513	17.327950
727.974731	34.649872
727.924011	27.220161
727.873291	14.844777
727.822510	17.315893
727.771790	19.786146
727.721008	42.038246
727.670288	7.417222
727.619507	4.943954
727.568726	34.601658
727.517944	24.711166
727.467163	7.412059
727.416382	22.232307
727.365601	-7.409479
727.314880	24.693962
727.264099	12.344831
727.213318	14.811217
727.162537	4.936213
727.111755	27.144444
727.060974	32.074207
727.010193	39.469074
726.959351	24.663876
726.908630	36.989368
726.857849	22.189754
726.807007	61.627472
726.756226	17.252686
726.705444	14.785440
726.654663	29.565729
726.603882	22.170433
726.553040	19.703617
726.502258	34.475323
726.451416	34.469315
726.400635	32.001644
726.349854	22.151123
726.299011	17.225649
726.248230	19.683025
726.197388	27.059443
726.146606	27.054726
726.095764	12.295459
726.044922	24.586630
725.994141	19.665874
725.943359	31.951475
725.892517	7.372132
725.841675	27.026438
725.790833	24.565205
725.739990	-7.368276
725.689209	29.467966
725.638367	0.000000
725.587524	14.728844
725.536682	22.089413
725.485840	22.085560
725.434998	26.988754
725.384216	4.906190
725.333313	19.621338
725.282532	24.522392
725.231689	26.969927
725.180847	12.256919
725.130005	24.509560
725.079102	12.252642
725.028259	22.050907
724.977417	17.147713
724.926575	4.898491
724.875671	12.244091
724.824829	14.690345
724.773926	12.239818
724.723145	29.370434
724.672241	17.129763
724.621399	14.680091
724.570496	0.000000
724.519653	14.674966
724.468811	19.563206
724.417908	17.114815
724.367004	7.333640
724.316162	31.773558
724.265259	36.655396
724.214417	26.875929
724.163513	4.885679
724.112671	17.096891
724.061768	21.977877
724.010864	29.298717
723.960022	29.293600
723.909058	7.322121
723.858215	12.201403
723.807312	14.639126
723.756409	31.712564
723.705505	14.634010
723.654602	12.192878
723.603699	21.943346
723.552795	9.750894
723.501892	19.498379
723.451050	12.184358
723.400085	9.745783
723.349182	19.488157
723.298279	17.049158
723.247375	14.611010
723.196411	12.173713
723.145508	12.171585
723.094604	-7.301674
723.043701	14.600795
722.992798	9.732162
722.941833	17.028305
722.890930	2.432190
722.839966	4.863529
722.789062	9.725356
722.738159	-7.292742
722.687195	24.304888
722.636230	24.300636
722.585388	12.148192
722.534424	-2.429214
722.483459	14.572732
722.432556	0.000000
722.381592	14.567634
722.330688	19.420113
722.279724	12.135448
722.228760	31.546642
722.177795	26.688643
722.126831	24.258156
722.075867	24.253910
722.024963	21.824699
721.973999	9.698169
721.923035	21.817060
721.872070	0.000000
721.821106	24.232693
721.770142	7.268536
721.719177	7.267263
721.668213	4.843994
721.617249	24.215729
721.566284	19.369192
721.515320	26.627975
721.464294	-2.420301
721.413330	29.038528
721.362366	29.033443
721.311401	12.095149
721.260437	14.511637
721.209473	31.436373
721.158447	36.266384
721.107483	-16.921349
721.056458	9.667648
721.005493	28.997864
720.954468	12.080327
720.903564	12.078210
720.852539	21.736969
720.801514	14.488773
720.750549	16.900608
720.699524	41.037140
720.648560	16.894686
720.597534	-2.413103
720.546509	21.714125
720.495544	24.122576
720.444519	16.882843
720.393555	4.822824
720.342529	-9.643957
720.291504	9.642267
720.240479	21.691298
720.189453	28.916658
720.138428	12.046495
720.087402	24.088766
720.036438	24.084543
719.985352	9.632128
719.934326	-4.815219
719.883362	24.071875
719.832275	-14.440592
719.781250	21.657087
719.730225	4.811842
719.679199	9.621996
719.628174	9.620308
719.577148	28.855862
719.526123	12.021167
719.475037	26.441927
719.424011	9.613559
719.372986	9.611872
719.321899	12.012732
719.270874	28.825497
719.219788	16.811922
719.168823	19.210255
719.117737	7.202581
719.066711	21.603951
719.015625	24.000175
718.964539	9.598385
718.913513	21.592575
718.862427	14.392523
718.811401	26.381660
718.760315	4.795824
718.709290	26.372396
718.658142	23.970697
718.607117	9.586596
718.556030	21.566051
718.505005	11.979035
718.453918	9.581546
718.402771	23.949657
718.351746	14.367270
718.300659	9.576498
718.249573	2.393704
718.198486	40.685818
718.147400	4.785726
718.096313	2.392442
718.045227	16.744156
717.994141	16.741213
717.943054	9.564727
717.891968	14.344569
717.840881	14.342049
717.789795	19.119371
717.738708	28.674015
717.687561	33.447140
717.636475	14.331968
717.585388	23.882416
717.534302	21.490396
717.483154	21.486618
717.432007	19.095858
717.380920	9.546250
717.329834	11.930716
717.278687	4.771447
717.227600	9.541216
717.176453	40.543037
717.125366	4.768930
717.074219	42.912827
717.023132	14.301760
716.971985	4.766415
716.920837	9.531153
716.869751	23.823690
716.818604	11.909750
716.767517	14.289186
716.716370	19.048895
716.665222	11.903465
716.614136	19.042192
716.562988	30.938120
716.511841	14.276620
716.460693	11.895089
716.409485	28.543190
716.358398	16.647264
716.307251	14.266572
716.256042	30.905466
716.204895	23.769251
716.153809	21.388561
716.102661	16.632618
716.051453	16.629690
716.000366	26.127769
715.949158	18.998669
715.898010	11.872078
715.846863	28.487968
715.795715	33.230110
715.744507	11.865808
715.693359	11.863717
715.642151	7.116977
715.591003	18.975262
715.539856	28.457880
715.488647	35.566086
715.437500	23.706547
715.386353	33.183319
715.335144	9.479278
715.283936	4.738804
715.232788	23.689844
715.181580	4.737134
715.130432	35.522247
715.079285	23.677324
715.028015	16.571207
714.976868	4.733796
714.925659	9.465923
714.874451	-4.732128
714.823303	0.000000
714.772095	7.095689
714.720886	33.107380
714.669678	7.093188
714.618469	7.091937
714.567261	25.999186
714.516052	28.357746
714.464905	4.725458
714.413635	16.536186
714.362427	30.704643
714.311218	7.084437
714.260010	21.249565
714.208801	4.721292
714.157593	11.801149
714.106384	11.799068
714.055176	0.000000
714.003906	11.794906
713.952698	25.944214
713.901489	9.432595
713.850281	0.000000
713.799011	-2.357317
713.747803	-2.356901
713.696594	11.782425
713.645325	14.136415
713.594055	18.845226
713.542847	18.841900
713.491577	25.903040
713.440369	16.480844
713.389160	25.893898
713.337891	11.767876
713.286621	18.825277
713.235413	25.880186
713.184143	18.818630
713.132874	30.574875
713.081665	16.460487
713.030396	14.106498
712.979126	18.805344
712.927917	11.751264
712.876648	21.148539
712.825378	23.494226
712.774109	11.745038
712.722778	16.440149
712.671570	4.696356
712.620300	2.347763
712.569031	42.252270
712.517761	14.081602
712.466492	32.851265
712.415222	21.114939
712.363953	23.456898
712.312622	37.524406
712.261353	25.793468
712.210083	25.788912
712.158813	-2.344032
712.107544	16.405325
712.056213	18.745628
712.004944	18.742315
711.953674	18.739002
711.902344	11.709805
711.851074	25.757019
711.799805	16.387932
711.748474	37.451508
711.697144	2.340305
711.645874	18.719131
711.594604	18.715822
711.543274	16.373447
711.492004	16.370552
711.440674	9.352946
711.389404	2.337823
711.338074	16.361868
711.286743	30.380949
711.235413	18.692661
711.184082	11.680847
711.132812	25.693316
711.081482	9.341372
711.030212	11.674647
710.978821	4.669033
710.927490	-2.334103
710.876221	-7.001070
710.824829	20.999495
710.773560	6.998593
710.722229	27.989416
710.670898	11.660192
710.619568	18.653006
710.568237	6.993639
710.516907	25.638803
710.465515	13.982326
710.414185	11.649875
710.362854	16.306938
710.311523	20.962351
710.260193	9.314950
710.208862	16.298277
710.157471	2.327913
710.106140	6.982502
710.054810	18.616707
710.003418	25.593437
709.952087	18.610111
709.900757	23.258518
709.849365	20.928959
709.797974	4.650056
709.746643	32.544624
709.695251	23.242041
709.643921	-2.323792
709.592529	25.557186
709.541199	23.229689
709.489807	16.257900
709.438477	30.187891
709.387024	25.539074
709.335693	11.606612
709.284302	6.962733
709.232910	6.961499
709.181519	6.960265
709.130188	27.836123
709.078796	9.277062
709.027405	6.956563
708.976013	13.910659
708.924622	18.544256
708.873230	4.635242
708.821838	32.440941
708.770447	0.000000
708.719116	27.796658
708.667664	13.895864
708.616272	30.102365
708.564880	4.630311
708.513489	2.314745
708.462036	0.000000
708.410706	20.825314
708.359253	25.448647
708.307861	25.444130
708.256470	4.625385
708.205017	-2.312282
708.153625	13.871230
708.102234	27.737535
708.050781	11.555256
707.999329	4.621282
707.947937	18.481846
707.896545	11.549104
707.845093	18.475285
707.793701	16.163004
707.742249	18.468725
707.690857	4.616362
707.639404	23.077709
707.587952	4.614722
707.536499	6.920855
707.485107	11.532709
707.433655	23.061321
707.382202	11.528613
707.330750	18.442505
707.279297	2.304904
707.227905	23.044941
707.176453	18.432678
707.125061	20.733080
707.073547	18.426130
707.022095	29.937141
706.970642	29.931822
706.919250	32.228542
706.867737	16.111408
706.816345	39.120750
706.764832	16.105682
706.713379	32.205639
706.661926	11.499969
706.610474	18.396681
706.559021	13.795058
706.507507	16.091373
706.456055	22.983589
706.404602	11.489752
706.353149	16.082792
706.301636	4.594266
706.250183	16.077074
706.198730	36.741062
706.147217	22.959080
706.095764	6.886499
706.044250	22.950914
705.992798	25.241516
705.941345	13.765651
705.889832	11.469335
705.838379	2.293459
705.786804	32.102715
705.735352	25.219072
705.683838	6.876705
705.632385	20.626446
705.580872	18.331356
705.529419	16.037083
705.477844	34.359058
705.426331	34.352947
705.374817	22.897888
705.323364	18.315050
705.271851	25.178711
705.220337	27.462795
705.168823	9.152636
705.117310	20.589764
705.065796	29.735476
705.014282	20.582434
704.962830	32.011417
704.911255	9.144491
704.859741	6.857147
704.808228	20.567778
704.756714	25.133917
704.705200	27.413935
704.653625	9.136351
704.602173	20.553127
704.550598	22.832741
704.499084	4.565735
704.447571	6.847382
704.395996	22.820541
704.344482	6.844943
704.292969	22.812410
704.241455	9.123338
704.189880	-2.280428
704.138306	15.960152
704.086792	18.236923
704.035278	2.279209
703.983704	11.394014
703.932129	15.948776
703.880615	13.667943
703.829041	31.886183
703.777527	22.771784
703.725952	18.214180
703.674377	13.658199
703.622803	11.379803
703.571289	22.755548
703.519714	13.650894
703.468140	20.472689
703.416565	13.646026
703.364990	20.465387
703.313416	22.735264
703.261902	20.458088
703.210327	18.181723
703.158752	20.450790
703.107178	13.631428
703.055542	11.357496
703.004028	22.710939
702.952393	11.353444
702.900818	6.810851
702.849243	22.698784
702.797668	4.538947
702.746094	34.036026
702.694519	11.343317
702.642883	24.950844
702.591309	24.946390
702.539734	24.941936
702.488098	11.335220
702.436584	36.266228
702.384949	13.597407
702.333374	20.392469
702.281738	27.185104
702.230164	13.590125
702.178528	27.175398
702.126892	9.056849
702.075317	13.582846
702.023682	20.370630
701.972107	18.103992
701.920471	22.625948
701.868835	11.310953
701.817261	11.308933
701.765625	4.522765
701.714050	11.304893
701.662415	24.866320
701.610779	11.300853
701.559204	27.117201
701.507507	15.815540
701.455933	24.848551
701.404297	36.136887
701.352661	18.065214
701.301025	31.608475
701.249390	24.830790
701.197754	9.027764
701.146118	29.334990
701.094482	20.305208
701.042847	6.767192
700.991211	15.787292
700.939575	31.568939
700.887939	9.018084
700.836243	-4.508235
700.784607	31.552006
700.732971	15.773182
700.681335	9.011635
700.629700	15.767540
700.578003	18.016823
700.526367	20.265299
700.474670	29.266863
700.423035	27.010731
700.371399	27.005899
700.319702	13.500533
700.268066	38.244667
700.216370	20.243553
700.164734	15.742168
700.113037	31.478703
700.061401	11.240381
