#Wave		#Intensity
899.963257	388.476837
899.920715	361.373810
899.878235	420.029633
899.835815	374.804993
899.793274	365.714844
899.750793	356.627594
899.708252	361.083923
899.665771	365.538788
899.623230	351.943848
899.580688	410.535248
899.538208	356.341553
899.495667	401.383636
899.453186	441.902100
899.410645	428.305725
899.368103	378.651672
899.325623	319.999451
899.283020	360.504913
899.240540	414.514130
899.197998	405.437897
899.155396	423.389404
899.112854	387.294098
899.070312	387.231964
899.027771	324.142181
898.985229	441.122742
898.942688	364.542938
898.900085	346.485229
898.857544	368.925049
898.814941	382.360962
898.772400	391.294891
898.729797	400.225952
898.687256	404.657959
898.644714	319.178955
898.602112	301.148712
898.559570	310.088470
898.516907	381.931763
898.474304	359.407501
898.431763	462.662933
898.389221	305.398376
898.346558	377.196289
898.304016	431.012329
898.261353	404.009247
898.218750	453.315399
898.176147	381.441864
898.133606	372.407013
898.090942	497.958405
898.048340	417.141449
898.005676	484.344635
897.963074	403.555786
897.920471	421.423981
897.877808	381.013763
897.835205	475.070343
897.792542	407.777985
897.749939	448.035797
897.707275	452.443573
897.664673	349.355835
897.622009	344.821594
897.579346	492.523254
897.536743	367.094818
897.494080	425.224548
897.451477	384.878387
897.408752	420.613556
897.366089	380.281036
897.323425	348.907806
897.280823	429.356110
897.238098	371.154602
897.195435	380.037109
897.152710	371.035553
897.110046	446.959106
897.067383	420.074158
897.024719	433.411285
896.982056	406.537109
896.939331	446.672424
896.896667	464.464844
896.854004	468.855652
896.811279	437.528412
896.768555	428.530548
896.725830	548.966675
896.683167	468.554962
896.640442	517.558655
896.597778	441.638702
896.555054	432.647308
896.512268	454.875763
896.469604	432.508575
896.426880	534.976379
896.384094	499.231201
896.341431	432.300537
896.298706	516.895081
896.255920	472.259399
896.213257	485.547363
896.170532	476.561829
896.127747	485.391663
896.085022	440.789642
896.042236	503.042847
895.999512	489.609222
895.956787	458.378754
895.913940	391.561768
895.871216	489.373749
895.828430	435.917603
895.785767	555.928223
895.742981	435.777832
895.700195	449.045959
895.657410	533.434387
895.614624	435.568268
895.571838	582.145874
895.529114	528.734741
895.486267	515.322632
895.443481	515.240051
895.400757	541.803467
895.357910	559.477844
895.315125	572.706909
895.272339	523.787415
895.229553	572.523254
895.186768	594.618774
895.143921	598.960205
895.101135	554.503845
895.058350	651.992004
895.015442	549.891479
894.972656	598.576172
894.929871	545.281982
894.887024	611.681702
894.844238	655.901306
894.801392	549.450867
894.758545	584.805542
894.715698	589.141418
894.672913	558.044495
894.630066	557.955017
894.587219	602.140625
894.544373	646.312073
894.501526	681.617188
894.458679	619.552612
894.415894	592.905334
894.372986	614.930054
894.330078	610.408264
894.287292	685.493591
894.244446	552.728821
894.201538	627.799255
894.158691	663.061951
894.115845	649.696533
894.072876	707.039368
894.030029	724.599182
893.987183	733.318176
893.944275	675.781311
893.901428	737.499329
893.858521	715.303833
893.815552	754.921936
893.772766	745.972839
893.729858	763.506592
893.686951	767.796875
893.644043	758.849976
893.601135	674.915344
893.558167	732.143738
893.515320	714.387207
893.472412	727.499939
893.429504	784.692383
893.386536	797.789612
893.343689	828.510559
893.300720	806.346497
893.257812	691.672729
893.214844	779.658936
893.171936	748.704956
893.129028	735.374634
893.086060	836.519714
893.043091	840.787659
893.000183	814.244995
892.957275	787.710815
892.914307	818.383972
892.871338	853.446472
892.828430	813.723206
892.785461	853.172974
892.742493	848.639160
892.699524	892.467041
892.656555	830.784424
892.613525	896.576050
892.570618	927.192322
892.527649	935.830872
892.484619	839.037781
892.441711	935.530945
892.398682	1005.644409
892.355652	895.714355
892.312744	974.591797
892.269775	991.993042
892.226746	939.170349
892.183777	996.063110
892.140686	873.060791
892.097717	1035.222778
892.054749	973.655212
892.011719	916.492493
891.968750	951.421082
891.925720	1017.024536
891.882751	955.499207
891.839722	946.581482
891.796692	863.179016
891.753662	1003.230103
891.710632	946.126587
891.667603	950.354492
891.624573	888.898865
891.581482	915.025085
891.538513	923.633301
891.495422	1024.149536
891.452454	993.353455
891.409363	1006.320251
891.366272	1019.282837
891.323242	1019.119507
891.280273	1080.181030
891.237122	996.930481
891.194092	1132.296631
891.151062	1014.095459
891.107971	1066.377808
891.064880	1101.164551
891.021851	1144.678223
890.978760	1096.443481
890.935730	1161.781860
890.892639	1144.128052
890.849548	1065.353149
890.806458	1091.375488
890.763367	1235.239136
890.720276	1208.856689
890.677185	1077.760864
890.634155	1151.754272
890.591003	1121.035645
890.547913	1129.578735
890.504761	1103.234131
890.461731	1185.895630
890.418579	1094.162231
890.375488	985.024109
890.332336	1067.664795
890.289246	1115.422119
890.246155	1176.233276
890.203003	1141.199097
890.159912	1088.755981
890.116760	1166.959473
890.073669	1123.236206
890.030457	1123.056274
889.987366	1170.750977
889.944214	1083.532715
889.901062	1192.130127
889.857910	1187.588989
889.814758	1222.194336
889.771606	1261.137329
889.728516	1247.891235
889.685364	1221.607178
889.642212	1147.518311
889.598999	1334.210938
889.555908	1255.782349
889.512695	1246.892090
889.469543	1142.439331
889.426392	1207.404053
889.383240	1311.430298
889.340027	1267.802368
889.296875	1237.211670
889.253723	1271.736694
889.210449	1245.494751
889.167297	1184.549072
889.124146	1206.051025
889.080933	1088.742065
889.037781	1153.621582
888.994507	1118.746948
888.951294	1105.561157
888.908081	1122.723511
888.864868	1174.553467
888.821716	1161.364990
888.778503	1139.515137
888.735291	1061.355469
888.692078	1186.795288
888.648804	1268.887939
888.605652	1225.384888
888.562378	1052.017090
888.519226	1203.349487
888.475952	1194.500977
888.432739	1112.092651
888.389465	1194.118408
888.346252	1267.466187
888.303040	1267.263184
888.259766	1254.086914
888.216492	1232.267334
888.173279	1305.561890
888.130066	1180.004272
888.086731	1132.276978
888.043457	1222.836182
888.000244	1205.359131
887.956970	1222.444458
887.913696	1127.232910
887.870483	1200.461914
887.827209	1269.349976
887.783936	1221.661621
887.740601	1208.517578
887.697327	1178.115967
887.654053	1255.592773
887.610779	1294.218262
887.567505	1125.789551
887.524231	1224.800903
887.480957	1263.412720
887.437622	1271.833008
887.394348	1206.970215
887.351074	1232.636353
887.307739	1318.623535
887.264404	1206.390381
887.221130	1356.971924
887.177734	1257.689941
887.134460	1304.859741
887.091125	1261.593018
887.047852	1338.882568
887.004517	1394.625366
886.961182	1437.439087
886.917908	1419.996826
886.874573	1350.932129
886.831238	1350.715820
886.787842	1367.703369
886.744568	1401.886475
886.701172	1362.965820
886.657837	1349.850952
886.614502	1353.932983
886.571167	1474.046509
886.527832	1392.170776
886.484436	1477.870605
886.441101	1297.225098
886.397766	1417.270752
886.354370	1313.986084
886.310974	1309.482300
886.267639	1433.760742
886.224304	1412.071167
886.180908	1532.002075
886.137451	1471.687866
886.094177	1424.262817
886.050781	1539.844849
886.007385	1509.578247
885.963989	1552.215454
885.920593	1564.828491
885.877197	1504.566772
885.833862	1568.613281
885.790405	1551.221558
885.747009	1645.231201
885.703613	1704.940552
885.660217	1674.685913
885.616821	1721.524170
885.573364	1631.332642
885.529968	1789.469360
885.486511	1784.902588
885.443115	1711.862549
885.399719	1677.356689
885.356323	1775.488770
885.312805	1659.709229
885.269409	1757.812622
885.225952	1825.950806
885.182556	1791.454102
885.139099	1752.693481
885.095642	1739.590332
885.052185	1735.038330
885.008728	1850.126465
884.965332	1687.489502
884.921875	1691.490723
884.878418	1738.198242
884.835022	1729.379761
884.791504	1758.988647
884.748108	1745.900879
884.704590	1643.188843
884.661072	1813.619385
884.617615	1766.395752
884.574219	1714.921265
884.530762	1808.483032
884.487244	1812.458130
884.443726	1940.085693
884.400269	1926.985352
884.356812	1837.163086
884.313232	1943.415894
884.269836	1998.500244
884.226257	2057.827637
884.182739	1891.364624
884.139343	2014.577148
884.095825	1941.860718
884.052307	2137.407959
884.008789	1958.267456
883.965332	1902.620361
883.921753	1791.666626
883.878235	1829.675293
883.834717	1850.654175
883.791199	1795.059937
883.747681	1956.387085
883.704163	1926.307617
883.660645	1887.734253
883.617126	1649.377563
883.573547	1797.873779
883.530029	1814.584351
883.486511	1895.023560
883.442932	1915.961426
883.399414	1996.358643
883.355896	1898.360474
883.312317	1893.810425
883.268738	1901.998291
883.225220	2016.304810
883.181641	2028.714478
883.138062	1981.711304
883.094482	2083.221680
883.050964	2218.636475
883.007385	2209.798340
882.963745	2145.833008
882.920227	2187.890381
882.876648	2302.004395
882.833069	2238.054688
882.789429	2258.886719
882.745911	2097.504639
882.702332	2347.134521
882.658691	2338.286621
882.615112	2371.795166
882.571533	2358.711426
882.527954	2277.887939
882.484314	2294.456543
882.440735	2158.644775
882.397156	2111.747803
882.353516	2166.416260
882.309875	2157.608398
882.266296	2081.124268
882.222656	2106.166504
882.179016	2110.058105
882.135437	2088.580811
882.091797	2138.972900
882.048218	1982.248535
882.004517	1998.834717
881.960876	2023.865845
881.917236	2010.868286
881.873657	2086.575439
881.829956	2124.250000
881.786316	2123.909912
881.742737	2056.020996
881.699036	2178.104736
881.655396	2169.314941
881.611694	2143.649170
881.568054	2117.991211
881.524414	2045.938965
881.480774	2151.055420
881.437073	2108.540039
881.393372	1998.576050
881.349731	2010.903320
881.306091	1976.860962
881.262390	1959.687012
881.218689	2022.578979
881.174988	1794.751465
881.131348	1853.437134
881.087646	1933.162476
881.044006	1916.008911
881.000244	1915.702271
880.956604	1734.380127
880.912903	1805.655273
880.869141	1792.741333
880.825500	1851.361328
880.781799	1808.995239
880.738098	1854.974854
880.694397	1854.677979
880.650574	1660.953613
880.606934	1635.462036
880.563232	1635.200317
880.519470	1723.199951
880.475769	1592.654297
880.432007	1781.470459
880.388306	1751.778931
880.344604	1927.908447
880.300842	1738.619507
880.257080	1851.711182
880.213379	1843.018433
880.169617	1779.760132
880.125854	1758.490845
880.082092	1863.114502
880.038391	1632.062012
879.994629	1791.205444
879.950867	1732.200073
879.907104	1828.373657
879.863342	1668.752808
879.819580	1660.101318
879.775818	1643.069580
879.732056	1726.623291
879.688293	1588.071533
879.644531	1587.817261
879.600708	1495.409058
879.556946	1511.922363
879.513123	1394.430908
879.469299	1415.141724
879.425598	1364.681519
879.381775	1406.317749
879.338013	1339.135864
879.294189	1485.365967
879.250427	1510.229004
879.206604	1401.234741
879.162781	1371.735596
879.119019	1434.237793
879.075134	1471.635254
879.031372	1387.797363
878.987549	1341.601318
878.943726	1370.638062
878.899963	1487.405518
878.856140	1491.344971
878.812317	1407.570801
878.768433	1415.697754
878.724609	1469.751709
878.680786	1352.623047
878.636963	1369.102905
878.593079	1335.496338
878.549255	1168.372314
878.505432	1297.520020
878.461609	1297.312378
878.417725	1242.884888
878.373840	1251.026123
878.330017	1184.115112
878.286194	1108.888062
878.242310	1217.080688
878.198425	1187.713989
878.154602	1241.691650
878.110718	1116.510376
878.066895	1078.842896
878.022949	1103.658691
877.979065	1028.528564
877.935181	1057.507812
877.891296	1078.152344
877.847473	1053.007202
877.803589	1111.098511
877.759705	1060.991577
877.715759	1110.742798
877.671936	1035.695435
877.627991	1093.752197
877.584106	1081.102905
877.540222	1151.605957
877.496277	972.681091
877.452393	976.681519
877.408447	951.592590
877.364563	922.356934
877.320679	897.284729
877.276672	992.669983
877.232788	909.455750
877.188904	896.853882
877.144958	880.104553
877.101013	958.828369
877.057068	867.372498
877.013184	858.934753
876.969238	833.904602
876.925354	825.474915
876.881348	804.605469
876.837402	837.651001
876.793457	729.717712
876.749512	820.801025
876.705566	737.773682
876.661560	824.682373
876.617676	758.254883
876.573730	762.276306
876.529724	795.291382
876.485779	753.749268
876.441833	728.783752
876.397888	828.030762
876.353821	774.084839
876.309875	790.516235
876.265869	695.211853
876.221924	695.100586
876.177917	761.178772
876.133972	727.967468
876.089966	818.832336
876.046021	806.296692
876.002014	785.496643
875.958008	789.504456
875.913940	764.580811
875.869995	714.871948
875.825989	747.809875
875.781982	747.690186
875.737976	735.179810
875.693970	722.673462
875.649902	743.202271
875.605896	705.929138
875.561890	718.198853
875.517883	660.307007
875.473877	668.453857
875.429810	697.226013
875.385864	676.489685
875.341736	742.369812
875.297791	721.632935
875.253723	791.607666
875.209656	725.524170
875.165588	721.286377
875.121521	766.501709
875.077454	778.739929
875.033447	766.256287
874.989380	807.323608
874.945374	815.431030
874.901306	840.006592
874.857239	843.989136
874.813110	831.504944
874.769104	888.991638
874.725037	827.123657
874.680969	843.448792
874.636841	855.654968
874.592773	966.570801
874.548706	818.369324
874.504639	900.473328
874.460571	805.774048
874.416443	846.749390
874.372437	928.809387
874.328308	850.587463
874.284180	891.535889
874.240051	817.452698
874.196045	891.250427
874.151917	862.362366
874.107788	878.647583
874.063660	853.875916
874.019531	812.694031
873.975464	853.602539
873.931335	902.704285
873.887207	927.175049
873.843079	869.600159
873.798950	980.194214
873.754822	914.428101
873.710754	959.380798
873.666565	885.440491
873.622437	1008.256897
873.578308	979.409851
873.534180	921.890930
873.489990	942.226501
873.445862	1040.379272
873.401672	1023.831360
873.357605	986.815430
873.313416	1056.255615
873.269287	1035.619751
873.225098	1064.102905
873.180969	1137.589355
873.136780	953.294556
873.092590	1039.047485
873.048462	1092.052246
873.004272	948.747375
872.960083	1034.459717
872.915894	952.531738
872.871765	1025.953613
872.827576	993.094849
872.783386	1127.778931
872.739197	1111.256348
872.695007	1074.314819
872.650818	1213.005371
872.606567	1078.054443
872.562439	1012.555664
872.518188	1094.038208
872.474060	1155.086670
872.429810	1150.820801
872.385559	1085.352173
872.341370	1142.293091
872.297241	1093.162598
872.252930	1211.258667
872.208740	1255.918945
872.164551	1170.100708
872.120361	1194.371582
872.076050	1226.785889
872.031860	1259.189819
871.987610	1275.285889
871.943359	1230.270508
871.899109	1185.269531
871.854919	1270.600952
871.810608	1164.531006
871.766418	1143.988892
871.722168	1127.523804
871.677917	1159.901855
871.633667	1147.508667
871.589417	1118.845215
871.545166	1094.258789
871.500916	1216.100342
871.456665	1211.839111
871.412354	1134.392456
871.368103	1073.231812
871.323853	1077.124512
871.279602	1089.144043
871.235229	1105.222900
871.190979	1170.048584
871.146790	1104.869019
871.102417	1133.121582
871.058105	1088.272339
871.013916	1035.317139
870.969604	1108.220947
870.925293	1087.749634
870.880981	1034.819946
870.836731	1087.401245
870.792419	1075.056763
870.748047	1042.435181
870.703796	993.602051
870.659485	1001.552673
870.615173	1066.259888
870.570862	1013.392700
870.526550	924.066162
870.482178	891.500000
870.437866	875.150757
870.393555	798.042053
870.349243	806.014954
870.304932	854.481995
870.260559	817.903870
870.216248	882.546997
870.171875	712.400940
870.127563	752.757690
870.083252	704.079895
870.038879	748.470825
869.994507	691.718994
869.950195	707.786194
869.905823	659.146729
869.861511	646.911560
869.817078	630.637756
869.772766	707.332947
869.728394	585.981995
869.684021	666.700317
869.639648	678.713440
869.595276	682.644043
869.550903	585.606750
869.506531	561.284851
869.462158	512.746460
869.417786	557.068359
869.373413	496.437927
869.328979	508.464722
869.284607	564.870300
869.240234	447.789734
869.195862	431.584045
869.151428	483.941986
869.107056	395.155975
869.062622	378.966461
869.018250	390.998505
868.973877	354.663483
868.929443	362.665924
868.885010	435.129425
868.840637	350.464783
868.796143	326.242554
868.751770	350.352539
868.707336	322.111664
868.662903	309.982819
868.618469	293.832733
868.574036	281.712311
868.529663	346.048248
868.485229	297.714752
868.440735	301.689606
868.396301	321.750702
868.351868	301.592957
868.307434	309.585846
868.263000	309.536285
868.218506	293.409454
868.174072	313.455780
868.129578	277.243408
868.085144	293.268494
868.040710	277.154602
867.996277	277.110199
867.951721	216.834122
867.907288	256.947418
867.862793	252.892105
867.818359	248.838089
867.773865	220.708099
867.729370	224.684982
867.684937	228.660583
867.640442	196.536392
867.595947	224.577042
867.551514	180.434784
867.506958	176.396866
867.462463	204.427246
867.417969	228.440918
867.373535	196.347580
867.328979	192.309677
867.284485	168.244003
867.239929	176.227402
867.195435	152.172012
867.150940	204.198135
867.106445	180.145966
867.061890	220.143127
867.017395	228.111786
866.972839	256.084503
866.928345	184.031250
866.883789	224.002151
866.839294	247.962646
866.794739	207.935364
866.750183	167.920883
866.705688	183.883896
866.661133	215.829117
866.616638	199.809769
866.572021	151.831100
866.527527	167.786423
866.482910	175.748108
866.438416	211.662659
866.393860	199.649765
866.349304	199.617783
866.304749	171.643799
866.260193	159.643066
866.215637	163.607925
866.171021	143.632721
866.126465	211.425415
866.081909	195.437469
866.037292	195.406158
865.992676	175.438644
865.948181	191.356949
865.903564	143.494720
865.859009	179.339661
865.814392	175.326233
865.769836	195.218399
865.725159	211.120758
865.680603	215.069702
865.635986	199.106705
865.591431	163.241348
865.546753	203.023773
865.502197	222.892349
865.457581	155.203735
865.412964	226.799881
865.368347	202.893692
865.323792	175.017487
865.279114	202.828674
865.234497	147.126648
865.189880	182.884903
865.145264	194.780960
865.100647	230.520111
865.055969	174.849304
865.011353	246.339096
864.966675	178.765854
864.922058	210.512711
864.877441	154.880768
864.832825	158.826614
864.788147	226.291656
864.743469	242.132965
864.698853	178.594055
864.654175	214.278534
864.609497	210.276703
864.564880	210.243011
864.520203	190.378250
864.475586	210.175644
864.430908	265.651154
864.386169	214.072601
864.341492	174.401566
864.296875	233.819183
864.252136	285.292938
864.207520	217.897171
864.162781	289.162628
864.118103	209.906357
864.073425	265.310791
864.028687	245.472137
863.984009	225.639832
863.939331	237.477554
863.894653	241.396820
863.849976	245.314819
863.805237	272.967896
863.760559	241.280777
863.715820	233.332535
863.671143	241.203445
863.626404	253.025360
863.581665	264.843475
863.536987	260.848785
863.492249	327.984528
863.447571	304.226044
863.402832	221.219833
863.358093	197.486053
863.313354	205.352585
863.268616	173.732025
863.223877	252.660629
863.179138	236.831375
863.134338	205.220963
863.089600	240.701385
863.044861	240.662811
863.000183	248.513565
862.955444	236.641647
862.910645	185.339584
862.865906	220.794739
862.821106	220.759354
862.776367	248.314468
862.731628	189.161652
862.686890	212.772751
862.642090	165.463394
862.597290	244.216324
862.552490	196.917084
862.507751	200.823227
862.463013	185.042725
862.418213	149.585022
862.373352	188.919220
862.328613	153.472260
862.283813	149.513107
862.239014	180.960541
862.194275	149.465179
862.149475	133.710571
862.104675	145.485229
862.059814	145.461914
862.015076	149.369370
861.970215	153.275558
861.925415	145.391968
861.880615	168.941956
861.835754	153.201859
861.790955	157.104919
861.746155	117.809807
861.701294	172.760010
861.656494	121.697769
861.611694	121.678261
861.566833	137.356659
861.522034	149.106171
861.477173	105.926880
861.432373	101.987305
861.387512	160.800354
861.342651	98.033279
861.297852	113.700371
861.252991	113.682144
861.208130	113.663918
861.163269	109.726875
861.118408	156.727554
861.073608	141.032181
861.028687	105.757179
860.983826	105.740219
860.938965	109.638947
860.894165	129.196609
860.849243	90.031685
860.804382	74.362076
860.759460	97.829147
860.714600	97.813461
860.669739	113.445419
860.624817	117.338516
860.580017	101.677078
860.535095	164.221252
860.490173	70.369247
860.445251	105.536949
860.400391	74.254837
860.355469	74.242928
860.310608	101.579292
860.265686	109.375542
860.220764	113.263649
860.175903	85.910370
860.130920	89.800987
860.086060	109.305405
860.041138	93.675323
859.996216	117.075378
859.951294	78.037735
859.906372	78.025223
859.861450	74.112076
859.816467	101.400261
859.771606	23.396307
859.726685	85.772705
859.681702	58.472008
859.636780	38.975090
859.591858	70.143906
859.546936	89.613953
859.501953	81.808311
859.457031	105.165253
859.412109	62.310154
859.367065	35.043839
859.322144	73.969574
859.277161	73.957710
859.232239	58.378304
859.187256	105.064095
859.142273	85.594048
859.097290	54.460205
859.052429	54.451469
859.007385	85.552872
858.962402	73.874718
858.917419	85.525429
858.872498	54.416542
858.827454	77.725449
858.782532	81.598633
858.737488	69.930466
858.692505	69.919250
858.647522	77.675598
858.602478	112.611549
858.557495	31.060272
858.512512	93.165871
858.467529	89.269638
858.422485	58.209988
858.377502	116.401299
858.332458	93.106102
858.287537	58.181980
858.242493	104.710762
858.197449	77.551086
858.152405	65.907852
858.107422	85.278831
858.062378	69.762398
858.017334	96.876671
857.972290	89.112244
857.927307	92.971771
857.882263	69.717644
857.837219	85.196777
857.792236	58.079395
857.747131	54.198738
857.702087	65.802193
857.657043	104.492599
857.611938	77.389511
857.566956	50.295113
857.521912	100.574081
857.476807	65.749428
857.431763	77.339859
857.386719	61.861958
857.341614	112.106812
857.296570	34.786186
857.251465	85.019257
857.206421	81.141724
857.161316	30.906174
857.116272	65.665085
857.071167	61.792515
857.026123	42.475536
856.981018	50.190308
856.935974	88.783989
856.890869	84.910187
856.845764	61.742954
856.800659	65.591362
856.755554	84.869324
856.710510	115.712318
856.665344	61.703335
856.620239	65.549271
856.575134	92.525299
856.530029	42.400623
856.484924	73.225693
856.439758	80.920670
856.394653	38.527470
856.349548	65.486183
856.304443	77.030205
856.259338	88.570526
856.214233	57.754116
856.169006	80.842789
856.123962	76.980774
856.078796	42.332630
856.033630	80.803871
855.988525	61.554974
855.943420	23.079411
855.898254	73.073067
855.853027	46.144005
855.807922	42.291882
855.762756	96.102486
855.717590	49.965275
855.672485	46.114388
855.627258	53.791485
855.582153	69.149384
855.536987	76.820312
855.491821	69.127182
855.446655	34.558044
855.401489	42.230831
855.356262	92.125206
855.311096	84.434547
855.265930	84.420998
855.220764	34.530319
855.175537	53.705208
855.130371	42.190174
855.085205	53.687965
855.039978	61.347828
854.994812	46.003483
854.949646	57.495125
854.904358	30.659143
854.859192	61.308445
854.814026	30.649302
854.768799	80.441498
854.723511	68.938789
854.678406	80.415672
854.633179	34.458328
854.587952	61.249416
854.542725	11.482422
854.497498	91.844627
854.452209	22.957470
854.407043	76.512619
854.361755	72.675316
854.316589	57.366039
854.271301	45.885464
854.226074	72.640320
854.180908	38.225609
854.135681	30.575577
854.090332	53.498669
854.045105	42.027920
853.999878	72.582024
853.954651	72.570366
853.909363	61.102077
853.864136	45.819199
853.818848	61.082455
853.773621	57.255608
853.728333	61.062840
853.683044	61.053036
853.637817	64.858437
853.592529	61.033432
853.547241	38.139771
853.501953	57.200466
853.456726	61.004032
853.411438	68.618515
853.366089	91.476662
853.320801	57.163734
853.275513	45.723644
853.230225	41.906609
853.184937	49.518040
853.139648	19.042341
853.094421	76.157127
853.049072	76.144897
853.003784	68.519402
852.958435	49.478287
852.913147	41.859520
852.867859	64.681595
852.822571	57.062832
852.777222	57.053665
852.731873	15.211867
852.686584	38.023560
852.641296	83.638397
852.595886	34.210213
852.550598	49.406815
852.505249	56.998707
852.459900	45.591640
852.414551	34.188240
852.369263	75.961662
852.323914	22.784838
852.278564	83.530983
852.233215	15.185012
852.187927	37.956432
852.142517	49.335438
852.097168	45.533089
852.051819	60.701031
852.006470	45.518459
851.961121	113.777870
851.915771	87.215683
851.870361	49.287903
851.825012	49.279987
851.779602	37.901592
851.734253	34.105953
851.688843	71.989891
851.643555	49.248325
851.598145	53.028137
851.552734	75.742310
851.507324	71.943634
851.461975	56.788483
851.416565	26.497034
851.371216	11.354048
851.325806	64.329262
851.280396	52.968529
851.235046	18.914293
851.189636	30.258005
851.144165	60.506287
851.098755	68.058640
851.053345	45.365135
851.007935	83.156052
850.962524	41.571342
850.917175	64.236298
850.871765	22.667992
850.826294	33.996525
850.780945	49.098198
850.735474	64.195023
850.690002	37.755707
850.644592	18.874821
850.599182	52.841003
850.553711	26.416256
850.508301	41.504589
850.462891	56.588074
850.417419	22.631592
850.372009	37.713257
850.326538	60.331512
850.281067	26.390795
850.235657	82.929169
850.190186	22.613411
850.144714	75.365921
850.099182	64.050743
850.053772	41.437935
850.008301	48.964233
849.962830	33.892868
849.917358	37.652691
849.871887	15.058655
849.826355	48.932762
849.780945	48.924896
849.735474	45.154186
849.690002	52.671413
849.644470	60.186226
849.598999	71.459656
849.553528	52.646019
849.507996	48.877731
849.462524	63.906757
849.417053	56.379253
849.371521	71.402237
849.325989	60.118538
849.280518	56.352066
849.234985	52.586807
849.189514	56.333950
849.143982	7.509986
849.098450	90.105347
849.052979	63.814358
849.007446	67.557281
848.961914	60.041260
848.916443	56.279633
848.870911	56.270584
848.825378	52.510769
848.779846	60.002659
848.734253	56.243450
848.688721	89.975052
848.643250	93.708939
848.597656	56.216324
848.552124	48.712978
848.506592	52.451698
848.461060	78.664894
848.415466	71.161560
848.369934	74.894859
848.324341	97.347656
848.278809	37.435387
848.233276	67.372864
848.187683	11.227004
848.142151	48.642529
848.096558	41.152443
848.050964	63.589005
848.005371	41.139210
847.959839	52.350574
847.914246	71.035782
847.868652	71.024361
847.823120	71.012939
847.777466	52.316906
847.731934	97.144341
847.686340	26.150040
847.640747	37.351192
847.595093	63.486813
847.549500	22.403507
847.503906	29.866539
847.458313	44.792603
847.412720	55.981747
847.367188	22.389097
847.321533	85.811066
847.275879	59.685055
847.230286	52.216022
847.184692	59.665855
847.139038	67.113289
847.093445	33.551247
847.047791	63.364384
847.002197	55.900757
846.956543	48.439529
846.910950	33.529663
846.865356	70.773460
846.819641	48.416157
846.773987	33.513485
846.728333	52.123703
846.682739	67.005409
846.637085	55.828857
846.591431	44.655899
846.545776	44.648716
846.500183	40.921406
846.454468	85.549171
846.408813	52.065029
846.363159	44.619987
846.317505	66.919212
846.271851	92.928398
846.226135	81.763832
846.180481	29.727520
846.134827	63.160816
846.089172	66.865395
846.043457	44.569759
845.997803	59.416782
845.952148	74.259026
845.906433	63.110016
845.860718	48.252834
845.815002	55.667389
845.769348	66.790115
845.723633	37.099651
845.677979	33.384312
845.632324	40.796482
845.586548	55.622612
845.540894	40.783352
845.495178	33.362827
845.449463	66.714912
845.403748	62.998390
845.358032	51.872677
845.312317	55.568924
845.266602	51.855984
845.220886	59.254444
845.175110	55.542099
845.129456	74.044212
845.083679	25.911303
845.037964	85.123436
844.992249	37.004234
844.946533	40.698105
844.900818	77.683876
844.854980	59.178188
844.809265	66.564743
844.763550	51.764244
844.717773	48.059063
844.672058	40.658813
844.626282	70.217552
844.580505	73.901314
844.534729	40.639183
844.489014	55.408146
844.443237	44.319382
844.397522	40.619556
844.351746	77.533943
844.305969	62.755470
844.260193	70.127174
844.214417	81.186813
844.168640	70.104599
844.122803	22.134729
844.077087	51.639385
844.031250	81.134544
843.985474	73.746796
843.939697	29.493969
843.893982	51.606136
843.848145	62.654503
843.802368	51.589520
843.756531	70.003075
843.710754	44.205349
843.664917	69.980530
843.619141	44.191113
843.573303	62.593998
843.527527	51.539696
843.481689	73.616280
843.435913	73.604424
843.390137	66.233315
843.344299	66.222649
843.298462	69.890427
843.252625	58.845619
843.206787	44.127106
843.160950	55.150002
843.115112	51.465042
843.069336	95.562546
843.023438	40.423798
842.977661	80.834572
842.931763	44.084484
842.885986	66.116074
842.840088	29.380188
842.794250	40.391251
842.748413	44.056087
842.702576	51.390488
842.656677	44.041897
842.610840	29.356535
842.565002	88.055420
842.519104	62.362537
842.473206	33.010143
842.427429	51.340839
842.381531	10.999836
842.335632	43.992256
842.289795	29.323446
842.243835	62.302288
842.197998	65.956497
842.152161	43.963917
842.106262	65.935249
842.060303	51.274712
842.014465	36.618893
841.968567	76.887283
841.922668	18.303547
841.876770	69.542274
841.830933	69.531067
841.784973	29.271523
841.739075	47.558559
841.693237	54.866417
841.647278	69.486267
841.601318	47.535572
841.555420	65.807877
841.509521	54.831062
841.463562	47.512596
841.417664	40.196487
841.371765	36.536373
841.325867	29.224388
841.279907	69.396736
841.234009	69.385551
841.188049	51.117958
841.142090	58.411110
841.096130	73.002121
841.050232	62.041801
841.004272	76.627525
840.958374	36.483414
840.912415	25.534275
840.866455	43.765987
840.820496	76.578133
840.774536	123.963661
840.728638	61.971840
840.682678	54.672222
840.636719	25.509590
840.590759	51.010960
840.544800	54.645790
840.498779	50.994514
840.452820	50.986294
840.406799	40.054203
840.360901	50.969856
840.314880	50.961643
840.268921	61.872017
840.222900	83.695709
840.176941	65.490425
840.130981	47.291016
840.084961	65.469315
840.039001	72.731956
839.992981	32.724102
839.947021	61.802227
839.901001	72.696777
839.854980	50.879543
839.808960	58.138672
839.763000	47.230057
839.716980	90.812386
839.670959	69.006287
839.625000	47.207214
839.578918	58.091816
839.532959	79.863365
839.486877	65.332222
839.440857	72.579651
839.394836	79.824738
839.348816	54.417183
839.302795	68.917313
839.256775	36.266422
839.210754	94.277489
839.164673	47.131145
839.118652	39.873768
839.072571	61.613155
839.026611	83.345535
838.980530	65.216415
838.934509	25.357851
838.888428	54.329487
838.842407	43.456581
838.796265	57.932762
838.750244	54.303204
838.704224	72.392593
838.658142	57.904732
838.612061	57.895393
838.566040	43.414539
838.519958	36.172947
838.473877	57.867382
838.427734	57.858047
838.381714	97.619705
838.335632	86.759071
838.289551	43.372536
838.243469	21.682770
838.197388	43.358543
838.151245	86.703102
838.105225	72.240929
838.059143	90.286591
838.013000	43.330570
837.966919	64.985374
837.920837	21.658295
837.874695	64.964401
837.828613	46.911167
837.782471	36.079689
837.736450	57.718189
837.690308	39.674850
837.644165	43.274673
837.598083	72.112816
837.551880	79.311302
837.505798	43.253727
837.459717	79.285706
837.413513	61.256340
837.367432	64.849190
837.321289	64.838722
837.275146	61.226688
837.229004	36.009888
837.182861	57.606522
837.136780	64.796875
837.090637	50.389439
837.044434	53.979969
836.998352	61.167427
836.952148	50.365044
836.906006	68.341530
836.859863	39.559761
836.813721	61.127945
836.767578	46.737354
836.721375	68.297417
836.675171	25.158144
836.629028	50.308167
836.582825	53.892906
836.536743	61.068768
836.490540	82.609116
836.444336	64.640175
836.398132	75.401360
836.351990	46.669498
836.305786	28.715055
836.259644	32.299221
836.213440	46.646900
836.167236	43.051723
836.121094	57.393032
836.074890	75.316193
836.028625	46.616783
835.982422	75.291878
835.936218	57.355976
835.890076	43.010036
835.843872	21.501545
835.797668	53.745186
835.751404	57.318939
835.705261	42.982262
835.658997	46.556599
835.612793	17.903494
835.566528	39.381325
835.520325	71.590843
835.474121	42.947571
835.427856	75.146111
835.381653	32.200275
835.335388	35.772305
835.289185	50.073139
835.242920	67.945427
835.196716	46.481468
835.150513	60.773643
835.104248	89.358574
835.057922	89.344139
835.011719	64.317390
834.965454	60.734390
834.919250	60.724579
834.872986	71.429146
834.826660	67.846725
834.780457	71.406067
834.734192	71.394531
834.687927	57.106400
834.641663	60.665749
834.595398	74.927940
834.549072	71.348412
834.502869	71.336884
834.456543	32.096413
834.410278	85.576607
834.364014	71.302322
834.317688	89.113503
834.271423	74.843246
834.225159	60.577599
834.178833	57.005001
834.132568	81.931450
834.086243	64.109901
834.039978	64.099548
833.993652	60.528679
833.947388	60.518898
833.901062	92.543358
833.854736	49.822987
833.808472	49.814934
833.762146	64.037422
833.715820	67.584137
833.669495	71.129700
833.623169	53.338654
833.576843	31.998020
833.530518	35.547611
833.484192	60.421169
833.437866	56.857792
833.391541	78.166832
833.345215	74.601730
833.298889	81.693459
833.252563	63.923676
833.206177	53.261120
833.159851	49.702343
833.113525	46.144714
833.067200	39.039219
833.020813	42.581352
832.974487	42.574471
832.928101	74.493279
832.881775	49.654160
832.835388	81.561501
832.789062	70.911583
832.742676	70.900116
832.696289	67.344223
832.649963	74.421051
832.603577	53.149303
832.557190	60.226135
832.510803	35.421413
832.464417	53.123528
832.418091	21.245975
832.371643	49.565926
832.325317	70.797020
832.278870	81.403404
832.232483	63.696712
832.186096	88.453354
832.139709	88.439049
832.093323	35.369900
832.046936	81.337616
832.000549	53.037693
831.954102	56.564388
831.907776	70.694054
831.861328	53.011967
831.814880	53.003391
831.768494	91.857689
831.722046	91.842834
831.675659	91.827980
831.629272	67.094208
831.582825	74.144760
831.536438	31.771187
831.489929	52.943417
831.443542	59.992832
831.397156	59.983128
831.350708	77.612671
831.304260	45.854614
831.257812	38.793781
831.211365	63.470463
831.164917	95.190292
831.118530	45.824951
831.072021	56.390816
831.025574	56.381691
830.979065	109.221855
830.932678	73.977028
830.886169	63.398624
830.839722	73.953094
830.793274	52.815094
830.746826	73.929169
830.700378	73.917206
830.653931	98.540329
830.607422	56.299648
830.560974	98.508446
830.514465	63.316608
830.468018	94.959549
830.421509	73.845474
830.375061	77.349403
830.328552	63.275639
830.282043	91.383354
830.235535	42.170105
830.189087	91.353775
830.142578	28.104305
830.096130	49.174576
830.049622	35.119011
830.003113	70.226662
829.956543	35.107647
829.910095	45.632553
829.863525	56.154053
829.817078	59.654022
829.770569	87.712303
829.723999	28.063395
829.677490	84.176559
829.630981	66.628990
829.584473	45.580875
829.537964	77.124382
829.491455	91.132240
829.444885	56.072300
829.398376	73.582977
829.351868	73.571068
829.305298	56.045071
829.258789	63.040501
829.212219	66.531975
829.165710	77.024551
829.119141	45.507141
829.072571	55.999718
829.026001	104.982475
828.979492	80.473534
828.932922	55.972523
828.886353	45.470310
828.839783	80.434448
828.793274	83.918007
828.746704	59.432297
828.700134	45.440868
828.653564	62.907936
828.606995	62.897747
828.560425	69.875069
828.513794	52.397816
828.467285	76.837685
828.420715	87.301407
828.374146	80.304283
828.327515	76.800354
828.280945	59.336117
828.234375	90.734657
828.187744	66.295357
828.141113	48.841297
828.094604	80.226280
828.047974	41.850410
828.001404	66.252419
827.954773	73.214493
827.908142	97.603508
827.861572	59.249676
827.814941	62.724785
827.768311	83.619499
827.721680	55.737301
827.675110	59.211288
827.628479	76.613960
827.581909	76.601547
827.535278	59.182518
827.488586	80.057487
827.441956	76.564323
827.395386	73.072289
827.348694	73.060448
827.302063	41.742062
827.255493	90.426476
827.208862	52.160667
827.162170	52.152218
827.115540	73.001274
827.068848	66.038071
827.022217	41.701496
826.975647	104.236839
826.928955	55.583973
826.882263	48.628094
826.835571	48.620213
826.789001	76.390808
826.742249	86.793671
826.695618	59.010132
826.648987	55.529945
826.602295	58.991005
826.555603	76.328926
826.508972	65.909752
826.462280	62.430695
826.415588	83.227432
826.368896	90.148438
826.322266	62.400341
826.275574	69.322472
826.228882	51.983425
826.182190	51.974998
826.135498	83.146515
826.088806	83.133041
826.042053	34.633152
825.995361	72.717827
825.948669	62.319458
825.901978	58.847725
825.855286	76.143532
825.808594	48.447117
825.761841	69.198944
825.715149	62.268955
825.668396	89.929459
825.621765	79.540085
825.575012	48.407852
825.528320	65.685715
825.481567	51.848736
825.434814	58.752373
825.388123	62.198307
825.341370	82.917625
825.294617	65.632477
825.247864	55.260490
825.201172	69.064407
825.154419	69.053207
825.107727	72.494110
825.060974	62.127728
825.014160	65.568634
824.967468	51.756313
824.920654	110.395561
824.873962	37.942318
824.827148	100.013519
824.780396	68.963654
824.733643	58.609596
824.686890	62.047153
824.640137	75.823105
824.593384	72.364861
824.546631	82.689285
824.499817	48.227589
824.453003	89.550995
824.406311	86.092751
824.359497	68.863029
824.312744	61.966671
824.265930	61.956615
824.219177	72.270988
824.172302	68.818344
824.125549	75.687897
824.078735	75.675613
824.031982	27.513941
823.985168	61.896320
823.938354	89.391289
823.891541	68.751373
823.844788	96.236298
823.797974	85.911324
823.751221	99.640961
823.704346	79.012764
823.657532	123.652084
823.610718	82.421341
823.563904	58.372307
823.517090	65.229050
823.470276	48.055710
823.423462	54.911896
823.376648	89.217346
823.329773	78.910225
823.282959	51.454838
823.236084	61.735783
823.189331	89.159431
823.142456	75.430351
823.095642	68.561913
823.048767	68.550781
823.001953	27.415861
822.955017	54.822823
822.908203	68.517403
822.861328	78.782219
822.814514	71.919914
822.767639	85.605042
822.720764	78.743851
822.673950	61.615616
822.627075	71.873215
822.580200	88.971436
822.533386	51.321339
822.486450	64.996475
822.439636	64.985916
822.392700	61.555607
822.345825	82.060814
822.298950	78.628845
822.252075	41.017082
822.205200	51.263027
822.158325	64.922623
822.111450	78.577774
822.064514	40.990440
822.017639	71.721619
821.970764	61.465691
821.923828	30.727854
821.876953	58.032074
821.830078	109.219101
821.783142	98.963730
821.736267	37.531868
821.689331	78.462982
821.642456	44.341434
821.595520	92.078789
821.548584	88.654060
821.501648	64.775131
821.454712	102.259911
821.407837	78.386528
821.360901	78.373795
821.314026	74.954056
821.267029	57.909634
821.220154	34.058956
821.173157	61.296158
821.126221	61.286198
821.079285	44.255062
821.032349	68.073647
820.985413	23.821905
820.938477	57.843796
820.891541	34.020233
820.844604	78.233818
820.797668	57.815598
820.750671	68.007294
820.703735	74.795868
820.656738	98.578529
820.609802	71.372849
820.562866	67.963097
820.515930	74.747253
820.468933	50.955753
820.421997	37.361477
820.375000	54.335136
820.328003	71.303268
820.281006	50.922630
820.234009	37.337193
820.187073	78.055984
820.140076	54.290985
820.093140	30.533714
820.046082	61.057503
819.999146	50.872978
819.952148	57.646667
819.905090	61.027725
819.858093	47.458290
819.811096	33.893269
819.764099	57.609188
819.717163	77.929169
819.670105	50.815105
819.623108	67.742455
819.576111	47.412010
819.529114	60.948383
819.482117	81.251297
819.435059	47.388882
819.388062	67.687393
819.341064	98.130760
819.294006	84.581726
819.247009	50.740780
819.199951	84.554214
819.152954	33.816185
819.105896	37.191753
819.058838	47.327259
819.011841	70.979340
818.964783	50.691280
818.917725	81.092857
818.870667	74.323029
818.823669	77.688705
818.776611	87.807732
818.729553	60.780079
818.682434	43.889584
818.635376	47.258015
818.588379	81.000557
818.541321	77.612907
818.494263	64.104576
818.447144	74.214279
818.400146	77.575027
818.353027	50.584179
818.306030	50.575947
818.258911	50.567719
818.211853	84.265816
818.164795	57.291428
818.117676	40.434429
818.070618	53.903797
818.023499	67.368782
817.976440	63.989925
817.929321	57.244827
817.882202	40.401539
817.835144	87.522415
817.788025	26.925591
817.740967	26.921209
817.693848	74.021278
817.646729	57.188946
817.599670	26.908066
817.552551	0.000000
817.505432	47.073784
817.458374	57.151722
817.411255	43.697144
817.364075	50.411572
817.316956	87.365829
817.269897	70.553223
817.222717	36.950432
817.175598	40.303001
817.128479	26.864292
817.081360	87.294739
817.034180	70.495804
816.987061	70.484329
816.939941	77.184555
816.892822	73.816681
816.845642	50.321362
816.798523	36.896320
816.751404	50.304974
816.704224	83.827965
816.657104	40.230873
816.609985	40.224319
816.562744	63.678135
816.515625	50.264023
816.468506	53.606228
816.421265	73.696556
816.374146	83.732445
816.326965	66.975044
816.279785	60.267727
816.232605	83.691536
816.185486	53.553860
816.138306	26.772568
816.091125	43.498337
816.043945	56.873173
815.996765	80.278458
815.949585	76.920990
815.902405	60.189228
815.855164	46.806217
815.807983	46.798592
815.760803	36.764332
815.713623	56.808346
815.666443	73.504707
815.619263	40.086945
815.572083	60.120617
815.524841	80.147758
815.477661	36.728405
815.430420	50.076027
815.383240	70.095016
815.335999	73.420906
815.288757	46.714779
815.241577	56.715847
815.194336	86.727745
815.147156	43.356804
815.099915	46.684334
815.052673	56.678883
815.005432	36.668594
814.958252	73.325233
814.911011	56.651173
814.863770	59.973816
814.816528	56.632702
814.769287	33.307926
814.722046	76.595741
814.674866	39.956478
814.627563	49.937458
814.580322	73.229668
814.533081	59.905411
814.485840	59.895645
814.438599	76.520844
814.391296	66.529015
814.344055	36.584995
814.296753	29.928297
814.249573	66.496483
814.202209	63.161358
814.154968	56.503578
814.107727	53.171165
814.060486	66.453117
814.013184	63.120171
813.965881	43.180443
813.918640	53.136490
813.871338	86.332718
813.824097	33.199474
813.776794	82.985153
813.729431	29.869781
813.682190	69.684792
813.634949	43.131168
813.587585	56.393097
813.540283	13.266800
813.492981	63.007019
813.445740	49.734268
813.398376	59.671387
813.351074	62.976189
813.303833	43.081944
813.256531	82.836372
813.209167	62.945374
813.161865	79.496971
813.114502	66.236671
813.067261	86.093620
813.019958	82.768822
812.972595	62.894043
812.925232	66.193451
812.877930	49.636990
812.830566	46.320297
812.783325	89.317421
812.735962	39.690155
812.688599	49.604599
812.641296	26.451468
812.593933	85.953239
812.546631	59.496380
812.499207	82.620377
812.451904	49.564133
812.404541	75.985931
812.357239	56.154350
812.309875	56.145184
812.262512	52.833900
812.215149	89.142654
812.167786	66.020821
812.120361	36.305523
812.073059	56.099377
812.025635	23.095972
811.978333	49.483288
811.930969	72.563644
811.883545	46.169323
811.836182	75.837219
811.788818	32.967323
811.741394	52.739101
811.694031	52.730492
811.646667	52.721882
811.599304	72.480751
811.551880	42.822540
811.504456	55.989563
811.457092	75.738213
811.409668	52.678852
811.362305	39.502686
811.314941	65.827057
811.267517	49.362232
811.220154	52.644447
811.172729	42.766628
811.125305	36.181236
811.077881	85.505318
811.030457	69.050705
810.983032	39.451103
810.935608	52.592876
810.888184	59.157322
810.840820	62.433640
810.793396	55.852554
810.745911	49.273613
810.698486	75.540535
810.651062	68.960526
810.603638	75.515854
810.556213	49.241421
810.508728	32.822250
810.461365	62.352089
810.413879	59.060749
810.366394	52.489864
810.318970	49.201210
810.271545	22.956812
810.224060	72.138191
810.176636	45.898621
810.129211	55.724930
810.081726	62.270626
810.034302	65.537315
809.986816	78.631927
809.939331	22.930565
809.891907	62.229931
809.844421	68.769211
809.796936	62.209591
809.749451	88.388657
809.702026	52.369900
809.654480	55.633923
809.607056	52.352779
809.559570	58.887249
809.512085	85.045456
809.464600	55.597553
809.417114	58.858376
809.369568	49.040627
809.322144	88.258698
809.274597	55.561207
809.227173	45.748806
809.179626	35.939613
809.132141	58.800663
809.084656	78.388062
809.037109	71.843979
808.989563	52.241619
808.942078	75.085052
808.894592	48.960503
808.847107	68.533493
808.799561	58.733391
808.752014	42.411621
808.704529	65.237976
808.656982	45.659115
808.609497	19.564993
808.561951	48.904480
808.514404	61.935543
808.466858	42.370018
808.419373	45.621788
808.371826	74.937820
808.324280	58.637398
808.276733	71.656204
808.229187	68.387917
808.181641	35.816383
808.134094	42.321526
808.086548	58.589451
808.039001	29.289932
807.991455	55.316376
807.943909	71.574188
807.896301	55.298275
807.848755	68.298462
807.801208	26.014204
807.753662	32.512432
807.706055	55.262093
807.658508	35.751972
807.610901	32.496475
807.563416	71.480545
807.515747	25.988672
807.468201	48.720783
807.420654	45.465290
807.373108	32.469891
807.325439	38.957493
807.277832	35.705193
807.230347	42.190136
807.182739	51.917824
807.135132	48.664993
807.087463	90.826447
807.039917	68.108688
806.992310	58.369316
806.944702	87.539642
806.897156	68.075241
806.849548	77.787537
806.801880	58.331104
806.754272	58.321552
806.706665	71.270226
806.659058	55.063431
806.611450	61.531406
806.563843	48.569473
806.516235	32.374348
806.468567	42.079758
806.420959	42.072868
806.373291	71.188576
806.325684	45.294403
806.278076	67.930481
806.230469	54.982334
806.182800	45.272152
806.135132	54.964325
806.087524	29.093994
806.039856	38.785641
805.992249	71.095360
805.944580	54.928322
805.896973	48.458229
805.849243	54.910328
805.801636	74.278275
805.753967	45.205456
805.706299	58.111782
805.658691	58.102261
805.611023	6.454749
805.563354	61.310070
805.515625	58.073708
805.468018	32.257885
805.420349	12.901040
805.372681	51.595703
805.324951	67.708267
805.277283	61.249821
805.229614	45.124050
805.181885	41.894039
805.134216	38.665085
805.086548	48.323433
805.038879	70.862755
804.991211	32.205063
804.943481	54.739635
804.895752	32.194508
804.848083	45.064922
804.800354	28.965559
804.752686	45.050152
804.705017	38.608086
804.657288	57.902637
804.609619	51.460575
804.561890	45.020618
804.514160	48.228470
804.466431	57.864677
804.418701	57.855190
804.371033	83.554909
804.323303	35.344357
804.275513	70.677124
804.227844	61.029327
804.180115	83.500122
804.132385	38.532200
804.084595	35.315392
804.036865	44.939491
803.989197	80.235931
803.941467	32.089111
803.893738	48.125771
803.845947	28.870728
803.798218	44.902653
803.750488	48.102097
803.702759	19.237682
803.654968	70.526604
803.607178	35.257515
803.559448	44.865841
803.511719	25.633419
803.463928	32.036518
803.416199	51.250019
803.368408	76.862419
803.320679	54.435284
803.272888	41.620152
803.225159	41.613323
803.177307	60.809494
803.129578	51.199593
803.081787	67.188438
803.033997	76.774193
802.986206	60.769596
802.938416	54.363873
802.890686	67.144356
802.842896	60.739685
802.795105	63.926018
802.747253	38.349316
802.699524	47.928780
802.651672	57.505096
802.603882	31.942032
802.556091	73.454620
802.508301	44.704166
802.460510	35.118938
802.412720	51.073708
802.364929	54.256908
802.317078	60.630119
802.269226	67.001236
802.221436	60.610214
802.173645	60.600266
802.125793	47.834461
802.078003	47.826607
802.030151	41.442921
801.982361	44.623512
801.934509	19.121222
801.886719	60.540596
801.838867	47.787357
801.791016	54.150112
801.743164	31.847778
801.695312	70.053604
801.647522	22.286123
801.599609	54.114555
801.551819	70.019096
801.503967	38.185963
801.456055	15.908205
801.408203	47.716778
801.360352	28.625364
801.312500	47.701103
801.264709	38.154617
801.216797	60.401554
801.168945	34.963577
801.121094	41.313801
801.073181	28.597164
801.025391	38.123291
800.977478	53.999119
800.929565	47.638454
800.881714	34.929127
800.833862	53.972511
800.785950	66.660973
800.738037	47.607155
800.690247	22.213022
800.642334	72.973656
800.594421	38.066956
800.546570	38.060699
800.498596	47.568054
800.450745	28.536144
800.402832	60.233070
800.354980	34.866047
800.307068	34.860317
800.259155	63.371975
800.211243	66.529640
800.163330	41.178246
800.115417	41.171478
800.067505	44.331226
800.019653	56.987923
799.971680	50.647602
799.923767	72.793961
799.875854	66.453125
799.827942	18.983486
799.779968	41.124126
799.732117	53.768860
799.684143	53.760021
799.636230	50.589348
799.588257	50.581032
799.540344	60.055099
799.492371	47.404125
799.444458	66.354858
799.396545	63.184715
799.348572	37.904594
799.300598	28.423771
799.252686	56.838192
799.204712	50.514530
799.156738	56.819500
799.108826	66.278511
799.060852	53.645210
799.012878	34.705898
798.964966	34.700188
798.916992	63.080875
798.869019	37.842300
798.821045	44.142086
798.773071	44.134827
798.725098	78.799225
798.677124	31.514503
798.629150	34.660252
798.581116	59.857857
798.533203	53.548218
798.485168	56.688786
798.437256	59.828320
798.389221	56.670132
798.341248	56.660809
798.293274	28.325743
798.245300	69.229309
798.197266	56.632843
798.149292	59.769276
798.101257	56.614204
798.053223	28.302444
798.005310	53.451374
797.957275	28.293129
797.909241	40.861126
797.861206	25.141169
797.813232	47.131935
797.765198	59.690624
797.717224	59.680798
797.669189	40.827507
797.621155	31.400606
797.573120	40.814068
797.525146	47.085400
797.477112	37.662121
797.429016	40.793911
797.381042	40.787197
797.333008	34.506561
797.284912	40.773766
797.236877	37.631126
797.188843	15.677053
797.140808	31.348944
797.092773	28.209404
797.044800	53.275654
796.996704	28.200113
796.948608	37.593960
796.900635	18.793884
796.852539	50.108772
796.804504	31.312824
796.756409	59.484566
796.708374	50.084015
796.660339	43.816296
796.612244	78.230492
796.564209	31.287043
796.516113	31.281889
796.468018	28.149063
796.419983	34.398743
796.371887	43.773006
796.323792	62.522560
796.275757	40.632969
796.227600	59.376862
796.179504	34.370415
796.131470	28.116615
796.083374	46.853302
796.035278	62.460777
795.987183	62.450485
795.939087	53.074165
795.891052	65.551399
795.842896	62.419617
795.794800	28.084198
795.746643	46.799282
795.698547	62.388760
795.650452	56.140629
795.602356	24.947277
795.554260	62.357914
795.506165	28.056435
795.458069	46.753017
795.409912	62.327080
795.361816	46.737606
795.313660	49.845226
795.265564	74.755516
795.217407	52.943092
795.169312	49.820576
795.121216	24.906181
795.073059	24.902075
795.024902	65.357170
794.976746	6.223466
794.928589	71.558060
794.880493	27.996361
794.832336	46.652908
794.784180	59.083939
794.736023	40.419186
794.687866	52.847141
794.639709	31.081427
794.591553	71.475487
794.543396	46.606762
794.495239	55.918888
794.447144	40.379204
794.398926	43.478123
794.350830	52.786152
794.302612	46.568336
794.254456	43.456608
794.206238	40.345909
794.158081	37.236233
794.109924	40.332596
794.061707	34.121952
794.013550	40.319290
793.965393	31.009720
793.917236	31.004604
793.869019	34.099438
793.820862	52.690434
793.772583	12.395703
793.724426	24.787315
793.676270	43.370644
793.628052	37.168701
793.579895	43.356327
793.531677	55.734650
793.483459	74.300606
793.435242	65.002296
793.387085	27.853529
793.338806	12.377303
793.290649	46.407223
793.242371	37.119652
793.194214	34.020729
793.145996	61.845661
793.097778	46.376587
793.049561	-6.182524
793.001343	46.361275
792.953064	15.451207
792.904846	55.615162
792.856628	77.230522
792.808411	37.064529
792.760193	61.764019
792.711914	21.613836
792.663696	67.917984
792.615417	58.646751
792.567200	58.637070
792.518982	40.113472
792.470703	61.702843
792.422485	43.184856
792.374207	40.093601
792.325928	40.086979
792.277710	3.083104
792.229492	52.404118
792.181152	61.641720
792.132935	52.386806
792.084656	46.216015
792.036377	36.966705
791.988098	43.120697
791.939819	49.272655
791.891602	33.869354
791.843323	27.706711
791.795044	36.936176
791.746765	49.240097
791.698486	49.231960
791.650208	30.764891
791.601929	46.139709
791.553650	49.207558
791.505371	49.199425
791.457031	43.042385
791.408752	49.183167
791.360474	46.101597
791.312195	52.239841
791.263916	39.941509
791.215576	36.862991
791.167297	36.856899
791.118958	46.063507
791.070679	36.844715
791.022339	46.048279
790.974060	58.318176
790.925720	46.033054
790.877441	33.751991
790.829102	33.746414
790.780823	61.346970
790.732422	52.136303
790.684143	45.995014
790.635803	21.460791
790.587524	18.391920
790.539185	55.166637
790.490845	49.028904
790.442505	49.020794
790.394104	64.329155
790.345825	30.627863
790.297424	39.809635
790.249146	48.988373
790.200745	61.225338
790.152405	48.972168
790.104065	39.783306
790.055725	55.075462
790.007385	33.651661
789.958984	55.057243
789.910706	45.873444
789.862305	39.750408
789.813904	39.743832
789.765564	30.567120
789.717224	58.067921
789.668823	39.724106
789.620483	48.883118
789.572083	33.601585
789.523682	54.975311
789.475342	27.483107
789.427002	21.372211
789.378601	36.632015
789.330200	39.678116
789.281799	15.258287
789.233459	39.664982
789.185059	54.911655
789.136658	42.701996
789.088257	33.546013
789.039856	60.982655
788.991455	27.437653
788.943115	48.769974
788.894714	39.619045
788.846252	48.753826
788.797913	54.838974
788.749451	57.876003
788.701050	30.456011
788.652649	33.496063
788.604248	6.089185
788.555847	57.837681
788.507385	21.305090
788.458984	51.732365
788.410522	39.553493
788.362122	33.462799
788.313660	45.623531
788.265259	36.492779
788.216858	39.527298
788.168396	45.600864
788.119995	63.830639
788.071533	45.585758
788.023071	33.424019
787.974670	45.570660
787.926208	33.412949
787.877747	54.666676
787.829346	51.621082
787.780884	27.324282
787.732422	12.142113
787.684021	36.420303
787.635559	21.241657
787.587097	57.646374
787.538635	21.234619
787.490173	66.726311
787.441711	39.422653
787.393250	45.480137
787.344788	36.378078
787.296326	36.372051
787.247803	60.610039
787.199341	57.569992
787.150879	33.324471
787.102417	39.376938
787.053894	48.455891
787.005432	72.671791
786.956909	27.247404
786.908508	75.674690
786.859985	39.344315
786.811523	33.285824
786.763000	33.280304
786.714478	54.449654
786.666016	30.244791
786.617493	30.239777
786.569031	72.563431
786.520508	48.367599
786.471985	57.426998
786.423523	54.395504
786.375000	21.150299
786.326477	27.188732
786.277954	30.204693
786.229431	36.239620
786.180908	36.233608
786.132446	33.208633
786.083923	51.313919
786.035339	9.053896
785.986816	15.087323
785.938354	45.254463
785.889771	39.214027
785.841248	27.143669
785.792725	66.340187
785.744202	45.224438
785.695679	42.202473
785.647095	48.223396
785.598572	36.161545
785.550049	51.220356
785.501465	57.236782
785.452942	30.119623
785.404358	27.103163
785.355835	60.219257
785.307251	27.094170
785.258728	54.179344
785.210205	42.132496
785.161621	54.161362
785.113037	39.110046
785.064453	36.095589
785.015930	24.059732
784.967346	39.090576
784.918762	54.116428
784.870239	48.095505
784.821594	36.065639
784.773071	51.084511
784.724487	63.093918
784.675903	36.047680
784.627319	39.045170
784.578735	45.044640
784.530151	54.044594
784.481567	33.021767
784.432983	42.020725
784.384399	54.017673
784.335754	15.002418
784.287170	71.999649
784.238586	26.995384
784.190002	32.988876
784.141357	32.983398
784.092773	29.979929
784.044128	44.962421
783.995605	53.945946
783.946960	50.940487
783.898376	47.936024
783.849670	53.919067
783.801086	29.950060
783.752502	50.906643
783.703857	50.898186
783.655212	53.883244
783.606628	35.916195
783.558044	23.940151
783.509338	35.904259
783.460693	50.855915
783.412109	14.955137
783.363464	32.895836
783.314819	29.900333
783.266174	47.832584
783.217529	23.912317
783.168884	17.931257
783.120300	32.868507
783.071594	38.838142
783.022949	32.857582
782.974304	47.784904
782.925659	62.707260
782.877014	59.711273
782.828369	35.820808
782.779663	14.922855
782.731018	38.792973
782.682373	29.835787
782.633667	62.644737
782.585022	38.773628
782.536377	38.767181
782.487671	41.742329
782.439026	47.697586
782.390320	32.786636
782.341614	47.681725
782.292969	17.877672
782.244263	53.624100
782.195557	32.764832
782.146912	50.628139
782.098206	14.888152
782.049500	35.725624
782.000854	47.626240
781.952087	74.403618
781.903442	38.683449
781.854736	38.677013
781.806030	44.619896
781.757324	59.483299
781.708618	68.394417
781.659912	62.436684
781.611206	65.398979
781.562500	35.666233
781.513794	35.660297
781.465027	32.683167
781.416382	53.472649
781.367615	35.642498
781.318909	5.939428
781.270203	50.476738
781.221436	35.624706
781.172791	26.714085
781.124023	29.677376
781.075256	35.606922
781.026550	32.634247
780.977844	35.595070
780.929077	53.383717
780.880310	44.479027
780.831604	38.542072
780.782837	23.714249
780.734131	35.565453
780.685364	29.632942
780.636597	8.888403
780.587891	53.321537
780.539062	17.770885
780.490356	68.110382
780.441589	59.216560
780.392822	56.246365
780.344055	29.598419
780.295288	35.512188
780.246521	23.670849
780.197815	23.666906
780.148987	59.157413
780.100281	47.318047
780.051453	47.310165
780.002686	38.433105
779.953918	56.162106
779.905151	41.375713
779.856384	67.963058
779.807556	38.407505
779.758789	47.262897
779.710022	59.068779
779.661194	23.623575
779.612427	32.477005
779.563599	32.471592
779.514832	38.369125
779.466003	38.362732
779.417236	50.158287
779.368408	29.499958
779.319580	47.192066
779.270813	67.827293
779.221985	47.176338
779.173218	67.804680
779.124390	32.422920
779.075562	55.993893
779.026733	53.038006
778.977966	67.759483
778.929138	26.510162
778.880310	32.395908
778.831482	35.335098
778.782593	35.329208
778.733826	55.928585
778.684937	29.431189
778.636108	64.737823
778.587341	35.305649
778.538513	35.299763
778.489624	52.940815
778.440796	47.050655
778.391968	44.102634
778.343079	49.974648
778.294250	64.662285
778.245422	49.957981
778.196594	26.443932
778.147705	35.252693
778.098816	55.807457
778.049988	41.114422
778.001099	38.171310
777.952271	20.550354
777.903381	44.029125
777.854553	26.413069
777.805664	58.685917
777.756836	67.477539
777.707886	52.799702
777.659058	46.925236
777.610168	58.646759
777.561279	11.727394
777.512451	64.489906
777.463562	49.824795
777.414673	55.677238
777.365784	29.298920
777.316895	67.376266
777.268005	23.431313
777.219116	58.568504
777.170227	35.135239
777.121277	32.201923
777.072388	29.269590
777.023560	52.676468
776.974670	26.333838
776.925720	49.733387
776.876831	23.400040
776.827881	29.245167
776.778992	67.252655
776.730103	32.158943
776.681152	55.537991
776.632263	32.148205
776.583313	49.675289
776.534424	8.764764
776.485535	46.737602
776.436584	37.967960
776.387695	35.041492
776.338684	58.392735
776.289795	40.868088
776.240906	43.779922
776.191956	32.099915
776.143005	40.847610
776.094055	52.509586
776.045105	14.583559
775.996216	55.408268
775.947266	40.820324
775.898315	55.389755
775.849365	61.210030
775.800415	49.542694
775.751465	40.793049
775.702515	49.526142
775.653564	49.517864
775.604553	37.860275
775.555664	37.853947
775.506653	23.290844
775.457703	26.197821
775.408752	43.655739
775.359802	52.378128
775.310852	29.094097
775.261841	43.633850
775.212891	58.168743
775.163879	52.343117
775.114929	37.797043
775.065918	31.976767
775.016968	14.532464
774.968018	29.060070
774.918945	43.582817
774.869995	40.670494
774.820984	31.950045
774.772034	34.848766
774.723022	14.517892
774.674011	58.061855
774.625061	40.636501
774.576050	31.923340
774.527039	29.016365
774.478027	43.517269
774.429016	40.609325
774.380005	58.003616
774.330994	34.796349
774.281982	34.790527
774.232971	17.392355
774.183960	23.185926
774.134949	55.057365
774.085876	26.075441
774.036926	37.658226
773.987915	37.651924
773.938904	23.166538
773.889832	34.743992
773.840820	40.527878
773.791809	49.204185
773.742737	14.469398
773.693665	40.507534
773.644653	63.644043
773.595581	40.493977
773.546570	52.054974
773.497559	26.023130
773.448486	60.710472
773.399475	34.685894
773.350403	57.800144
773.301331	31.784758
773.252319	31.779436
773.203247	17.331337
773.154236	17.328436
773.105103	20.213123
773.056030	51.967899
773.007019	54.845821
772.957947	25.975250
772.908875	25.970900
772.859802	43.277584
772.810730	66.347855
772.761658	23.073650
772.712585	37.488400
772.663513	46.131844
772.614441	51.889633
772.565369	20.175922
772.516296	46.108669
772.467163	25.931782
772.418091	46.093224
772.368958	43.205158
772.319946	46.077782
772.270813	34.552547
772.221741	46.062344
772.172668	40.297798
772.123535	28.779320
772.074402	31.651949
772.025330	69.047226
771.976257	54.653229
771.927124	51.768066
771.877991	46.008347
771.828918	31.625439
771.779785	43.118370
771.730652	66.103752
771.681580	45.977512
771.632446	22.984903
771.583313	51.707367
771.534180	17.232899
771.485046	25.845016
771.435974	22.969498
771.386780	54.543411
771.337708	40.183144
771.288513	28.697433
771.239380	51.646721
771.190247	45.900497
771.141113	51.629402
771.091980	54.488567
771.042908	40.142738
770.993713	31.535433
770.944519	25.797392
770.895447	37.256649
770.846313	60.173725
770.797119	20.054544
770.747925	51.560181
770.698792	40.095638
770.649658	37.225418
770.600525	40.082188
770.551331	48.663063
770.502197	20.034370
770.453003	48.646736
770.403870	42.916393
770.354675	31.466740
770.305481	34.321594
770.256287	37.175488
770.207153	34.310078
770.157959	40.021709
770.108765	37.156780
770.059631	54.296947
770.010437	54.287838
769.961243	51.421951
769.912048	45.700729
769.862854	17.134897
769.813660	54.251404
769.764465	28.548576
769.715271	25.689407
769.666077	39.954590
769.616882	54.214985
769.567688	25.676472
769.518494	28.524624
769.469238	25.667852
769.420044	34.218056
769.370850	25.659233
769.321594	39.907661
769.272461	34.200825
769.223206	65.540573
769.173950	59.831345
769.124817	59.821297
769.075562	22.785238
769.026306	45.562824
768.977112	28.471983
768.927856	56.934402
768.878662	28.462420
768.829407	39.840694
768.780212	39.834003
768.730957	19.913656
768.681763	22.754641
768.632446	19.906965
768.583252	22.746996
768.533997	48.329247
768.484741	17.054516
768.435486	36.945240
768.386230	25.573177
768.337036	31.250853
768.287781	39.767132
768.238525	34.080383
768.189209	28.395548
768.140015	45.425240
768.090759	31.224604
768.041443	39.733727
767.992188	48.239986
767.942932	34.046032
767.893677	70.917313
767.844421	39.707020
767.795105	48.207561
767.745850	51.034721
767.696594	42.521782
767.647278	36.846016
767.598022	51.008984
767.548767	51.000408
767.499451	33.994556
767.450134	5.664807
767.400879	42.478905
767.351562	48.134663
767.302307	19.816822
767.252991	31.135485
767.203735	33.960270
767.154419	25.465919
767.105103	31.119778
767.055786	25.457354
767.006470	39.593670
766.957214	39.587009
766.907837	42.407516
766.858582	50.880459
766.809265	31.088383
766.759949	42.386120
766.710632	48.029518
766.661316	31.072695
766.612000	48.013359
766.562683	59.300640
766.513367	45.173836
766.464050	36.697567
766.414673	47.981049
766.365356	36.685215
766.316040	33.857578
766.266724	19.746929
766.217346	28.205153
766.168030	28.200405
766.118713	47.932617
766.069336	25.371820
766.020020	59.190948
765.970703	39.453991
765.921326	19.723675
765.871948	45.075096
765.822632	39.434067
765.773254	42.243675
765.723938	42.236561
765.674561	30.968264
765.625244	22.518581
765.575867	14.071743
765.526489	25.324871
765.477112	28.134008
765.427795	30.942198
765.378418	42.186798
765.329041	16.871878
765.279663	47.795601
765.230286	25.299292
765.180908	30.916147
765.131531	50.581539
765.082153	61.811466
765.032715	36.518803
764.983337	53.364647
764.934021	39.314693
764.884644	53.346664
764.835205	30.879707
764.785828	36.488052
764.736450	47.707104
764.687073	25.252445
764.637634	16.832127
764.588257	36.463463
764.538818	16.826454
764.489441	36.451172
764.440063	61.676205
764.390625	61.665810
764.341187	25.222670
764.291809	22.416372
764.242432	25.214167
764.192932	50.419834
764.143555	36.408184
764.094116	22.401260
764.044739	36.395912
763.995300	50.385841
763.945862	50.377346
763.896484	72.755005
763.847046	33.573574
763.797607	33.567909
763.748169	58.733936
763.698730	44.742119
763.649292	41.938663
763.599854	33.545273
763.550415	16.769808
763.500977	11.177986
763.451538	55.880501
763.402100	25.141985
763.352661	39.103157
763.303162	61.437450
763.253723	27.921404
763.204285	5.583339
763.154846	44.659172
763.105408	58.605274
763.055908	19.531796
763.006470	27.897856
762.957031	47.418354
762.907532	58.565727
762.858032	19.518616
762.808594	55.758060
762.759094	50.173786
762.709656	33.443546
762.660156	25.078424
762.610718	33.432255
762.561218	41.783268
762.511780	33.420971
762.462280	30.630718
762.412781	22.273127
762.363342	41.755062
762.313843	41.748013
762.264343	27.827309
762.214783	36.169392
762.165344	33.381496
762.115845	47.282467
762.066345	16.685112
762.016846	55.607647
761.967346	36.138866
761.917847	16.676659
761.868286	47.242554
761.818848	16.671026
761.769287	61.116776
761.719788	41.663490
761.670288	41.656452
761.620789	47.202671
761.571228	63.851650
761.521729	33.308277
761.472229	47.178753
761.422668	52.720284
761.373169	52.711376
761.323608	49.928658
761.274109	38.826839
761.224609	19.410139
761.175049	27.724085
761.125488	52.666859
761.075989	38.800602
761.026489	36.023041
760.976929	24.934813
760.927307	41.550999
760.877808	36.004780
760.828308	19.383911
760.778687	41.529930
760.729187	22.145552
760.679626	38.748165
760.630066	69.181458
760.580566	38.735065
760.530945	49.793808
760.481384	47.019531
760.431824	38.715420
760.382263	19.354437
760.332703	16.586712
760.283142	52.515709
760.233521	49.743309
760.184021	38.682697
760.134460	24.863243
760.084839	8.286345
760.035278	35.901424
759.985657	16.567085
759.936096	55.214279
759.886536	49.684444
759.836975	27.597799
759.787354	44.149010
759.737732	35.865002
759.688232	33.100555
759.638611	41.368694
759.588989	35.846802
759.539368	46.868652
759.489807	19.295591
759.440186	55.120934
759.390564	46.844864
759.341003	35.816483
759.291443	24.791828
759.241760	33.050179
759.192200	44.059444
759.142578	35.792240
759.092957	24.775047
759.043335	38.532440
758.993713	44.029621
758.944092	41.270782
758.894470	33.011036
758.844849	57.759529
758.795227	38.499836
758.745667	71.487587
758.695984	32.988686
758.646362	57.720421
758.596741	68.703156
758.547058	21.981285
758.497437	71.427078
758.447815	16.480381
758.398193	41.193974
758.348511	38.441196
758.298889	38.434685
758.249268	32.938435
758.199646	38.421665
758.149963	63.110615
758.100281	38.408649
758.050659	52.117195
758.000977	32.910545
757.951355	46.615376
757.901672	30.157778
757.851990	46.599579
757.802368	43.850994
757.752686	54.804455
757.703003	41.096378
757.653320	46.568001
757.603699	10.955319
757.554016	27.383657
757.504333	21.903214
757.454651	43.799000
757.404968	43.791576
757.355286	46.520664
757.305603	43.776730
757.255920	43.769310
757.206238	19.145826
757.156616	49.223778
757.106873	43.747051
757.057190	43.739635
757.007446	40.998955
756.957764	57.388805
756.908081	35.520378
756.858398	21.854988
756.808716	40.971153
756.758972	24.578522
756.709290	43.687740
756.659607	40.950310
756.609924	32.754692
756.560120	35.478230
756.510437	49.115372
756.460693	27.281689
756.411072	35.460178
756.361328	21.817945
756.311584	29.994585
756.261902	24.536861
756.212097	49.065395
756.162415	43.606285
756.112671	46.323814
756.062927	38.142551
756.013184	65.376137
755.963501	49.023781
755.913757	38.123135
755.864014	38.116665
755.814270	32.665882
755.764587	27.216948
755.714844	27.212328
755.665100	38.090794
755.615356	29.923399
755.565552	19.038931
755.515808	27.193855
755.466064	46.221706
755.416321	62.524632
755.366577	46.206009
755.316833	24.457851
755.267029	40.756165
755.217285	51.615711
755.167542	38.026169
755.117737	38.019711
755.067993	13.576162
755.018188	38.006798
754.968445	51.571896
754.918701	46.135437
754.868896	65.121315
754.819092	24.416346
754.769348	46.111931
754.719543	32.544067
754.669739	40.673172
754.619995	27.110842
754.570190	48.791225
754.520386	24.391468
754.470642	43.355240
754.420837	40.638630
754.371033	40.631725
754.321228	27.083214
754.271484	43.325779
754.221619	32.488811
754.171875	48.724934
754.122070	35.184250
754.072205	48.708370
754.022400	35.172287
753.972595	40.576511
753.922852	64.911385
753.872986	54.083622
753.823181	27.037214
753.773376	64.878281
753.723572	37.839230
753.673706	40.535137
753.623901	37.826363
753.574097	37.819931
753.524292	35.112534
753.474426	13.502524
753.424561	59.401005
753.374756	29.695450
753.324951	48.584290
753.275085	32.384018
753.225281	26.982092
753.175415	24.279751
753.125610	40.459370
753.075745	29.665155
753.025879	26.963736
752.976074	37.742809
752.926208	45.822754
752.876343	37.729965
752.826477	29.639929
752.776672	32.328964
752.726807	32.323463
752.676941	45.783783
752.627075	48.468697
752.577209	32.306965
752.527344	32.301468
752.477539	43.061291
752.427673	34.981342
752.377808	26.904146
752.327881	53.799133
752.278015	16.136992
752.228149	13.445204
752.178284	43.017330
752.128357	45.698132
752.078491	40.315014
752.028625	37.620941
751.978760	26.867525
751.928833	42.980721
751.878967	40.287563
751.829102	34.909943
751.779175	45.643688
751.729309	42.951447
751.679382	34.892109
751.629456	37.569717
751.579590	13.415470
751.529663	34.874279
751.479797	42.914879
751.429871	50.952740
751.379944	2.681266
751.330078	56.296997
751.280212	50.926701
751.230225	40.198441
751.180298	18.756075
751.130371	26.789827
751.080505	29.463789
751.030579	26.780699
750.980652	40.164200
750.930725	42.834515
750.880859	37.473812
750.830872	26.762445
750.780945	24.082096
750.731018	45.480648
750.681091	64.197029
750.631165	37.441883
750.581177	48.131359
750.531311	40.102627
750.481384	29.403580
750.431396	48.106743
750.381409	48.098541
750.331482	56.105396
750.281616	48.082138
750.231628	18.695421
750.181641	32.043827
750.131714	0.000000
750.081787	56.057571
750.031799	58.716965
